;PC Software:StarLab Version 3.80 Build 2
! ******* Warning: Do not modify this file. Changes may prevent   ********
! ******* the StarLab Log reader from opening the file correctly. ********
;Logged:23/11/2022 at 17:25:59
;File Version:5
;Time Resolution:1 microseconds
;Log Settings:Stop after:period: 00:05:00
;Graph Mode:Merge
;Graph Type:Line
;Notes:                                                            

;Channel A:Vega Thermopile 3A (s/n:947746)  VG2.54 (s/n:858327)

;Channel A:Details
;Name:3A
;Graph Color:RGB(14,104,168)
;Units:W
;Settings:Measuring:Power
;Settings:Wavelength:532
;Settings:Range:AUTO

;Channel A:Statistics
;Min:-7.400mW            
;Max:390.0mW             
;Average:217.5mW             
;Std.Dev.:163.2mW             
;Overrange:0                   
;--------------------


;First Pulse Arrived : 23/11/2022 at 17:25:59
  Timestamp   	  Channel A  	
         0.000	  3.880e-01 	
         0.063	  3.880e-01 	
         0.128	  3.880e-01 	
         0.225	  3.880e-01 	
         0.289	  3.880e-01 	
         0.351	  3.880e-01 	
         0.415	  3.880e-01 	
         0.479	  3.880e-01 	
         0.544	  3.880e-01 	
         0.607	  3.880e-01 	
         0.673	  3.880e-01 	
         0.736	  3.880e-01 	
         0.800	  3.880e-01 	
         0.863	  3.880e-01 	
         0.928	  3.880e-01 	
         1.025	  3.880e-01 	
         1.088	  3.880e-01 	
         1.152	  3.880e-01 	
         1.216	  3.880e-01 	
         1.279	  3.880e-01 	
         1.345	  3.880e-01 	
         1.408	  3.880e-01 	
         1.472	  3.880e-01 	
         1.535	  3.880e-01 	
         1.599	  3.880e-01 	
         1.664	  3.880e-01 	
         1.728	  3.880e-01 	
         1.824	  3.880e-01 	
         1.888	  3.880e-01 	
         1.952	  3.880e-01 	
         2.015	  3.880e-01 	
         2.079	  3.880e-01 	
         2.144	  3.880e-01 	
         2.208	  3.880e-01 	
         2.272	  3.880e-01 	
         2.336	  3.880e-01 	
         2.400	  3.880e-01 	
         2.463	  3.880e-01 	
         2.528	  3.880e-01 	
         2.624	  3.880e-01 	
         2.687	  3.880e-01 	
         2.752	  3.880e-01 	
         2.816	  3.880e-01 	
         2.880	  3.880e-01 	
         2.944	  3.880e-01 	
         3.008	  3.880e-01 	
         3.072	  3.880e-01 	
         3.136	  3.880e-01 	
         3.200	  3.880e-01 	
         3.263	  3.880e-01 	
         3.328	  3.880e-01 	
         3.424	  3.880e-01 	
         3.488	  3.880e-01 	
         3.552	  3.880e-01 	
         3.616	  3.880e-01 	
         3.679	  3.880e-01 	
         3.744	  3.870e-01 	
         3.808	  3.870e-01 	
         3.871	  3.870e-01 	
         3.936	  3.870e-01 	
         4.001	  3.870e-01 	
         4.063	  3.870e-01 	
         4.128	  3.870e-01 	
         4.224	  3.870e-01 	
         4.288	  3.870e-01 	
         4.352	  3.870e-01 	
         4.415	  3.870e-01 	
         4.479	  3.870e-01 	
         4.543	  3.870e-01 	
         4.608	  3.870e-01 	
         4.672	  3.870e-01 	
         4.736	  3.870e-01 	
         4.801	  3.870e-01 	
         4.863	  3.870e-01 	
         4.928	  3.880e-01 	
         5.025	  3.880e-01 	
         5.088	  3.880e-01 	
         5.152	  3.880e-01 	
         5.216	  3.880e-01 	
         5.279	  3.880e-01 	
         5.344	  3.880e-01 	
         5.407	  3.880e-01 	
         5.472	  3.880e-01 	
         5.535	  3.880e-01 	
         5.600	  3.880e-01 	
         5.664	  3.880e-01 	
         5.728	  3.880e-01 	
         5.825	  3.880e-01 	
         5.888	  3.880e-01 	
         5.952	  3.880e-01 	
         6.015	  3.880e-01 	
         6.080	  3.880e-01 	
         6.143	  3.880e-01 	
         6.208	  3.880e-01 	
         6.272	  3.880e-01 	
         6.335	  3.880e-01 	
         6.400	  3.880e-01 	
         6.463	  3.880e-01 	
         6.528	  3.880e-01 	
         6.624	  3.880e-01 	
         6.689	  3.880e-01 	
         6.752	  3.880e-01 	
         6.816	  3.880e-01 	
         6.879	  3.880e-01 	
         6.944	  3.880e-01 	
         7.008	  3.880e-01 	
         7.073	  3.880e-01 	
         7.137	  3.880e-01 	
         7.200	  3.880e-01 	
         7.263	  3.880e-01 	
         7.328	  3.880e-01 	
         7.424	  3.880e-01 	
         7.488	  3.880e-01 	
         7.551	  3.880e-01 	
         7.617	  3.880e-01 	
         7.680	  3.880e-01 	
         7.744	  3.880e-01 	
         7.808	  3.880e-01 	
         7.872	  3.880e-01 	
         7.936	  3.880e-01 	
         8.000	  3.880e-01 	
         8.065	  3.880e-01 	
         8.127	  3.880e-01 	
         8.192	  3.880e-01 	
         8.288	  3.880e-01 	
         8.352	  3.880e-01 	
         8.416	  3.880e-01 	
         8.479	  3.880e-01 	
         8.544	  3.880e-01 	
         8.608	  3.880e-01 	
         8.672	  3.880e-01 	
         8.736	  3.880e-01 	
         8.801	  3.880e-01 	
         8.864	  3.880e-01 	
         8.927	  3.880e-01 	
         8.992	  3.880e-01 	
         9.089	  3.880e-01 	
         9.152	  3.880e-01 	
         9.216	  3.880e-01 	
         9.279	  3.880e-01 	
         9.344	  3.880e-01 	
         9.408	  3.880e-01 	
         9.472	  3.880e-01 	
         9.536	  3.880e-01 	
         9.600	  3.880e-01 	
         9.664	  3.880e-01 	
         9.727	  3.880e-01 	
         9.824	  3.880e-01 	
         9.887	  3.880e-01 	
         9.952	  3.880e-01 	
        10.015	  3.880e-01 	
        10.080	  3.880e-01 	
        10.144	  3.880e-01 	
        10.208	  3.880e-01 	
        10.272	  3.880e-01 	
        10.335	  3.880e-01 	
        10.400	  3.880e-01 	
        10.464	  3.880e-01 	
        10.527	  3.880e-01 	
        10.591	  3.880e-01 	
        10.688	  3.880e-01 	
        10.752	  3.880e-01 	
        10.816	  3.880e-01 	
        10.880	  3.880e-01 	
        10.944	  3.880e-01 	
        11.009	  3.880e-01 	
        11.072	  3.880e-01 	
        11.136	  3.880e-01 	
        11.200	  3.880e-01 	
        11.264	  3.880e-01 	
        11.327	  3.880e-01 	
        11.392	  3.880e-01 	
        11.488	  3.880e-01 	
        11.552	  3.880e-01 	
        11.615	  3.880e-01 	
        11.679	  3.880e-01 	
        11.743	  3.880e-01 	
        11.808	  3.880e-01 	
        11.872	  3.880e-01 	
        11.936	  3.880e-01 	
        12.000	  3.880e-01 	
        12.064	  3.880e-01 	
        12.127	  3.880e-01 	
        12.192	  3.880e-01 	
        12.288	  3.880e-01 	
        12.352	  3.880e-01 	
        12.416	  3.880e-01 	
        12.480	  3.880e-01 	
        12.544	  3.880e-01 	
        12.608	  3.880e-01 	
        12.673	  3.880e-01 	
        12.737	  3.880e-01 	
        12.800	  3.880e-01 	
        12.863	  3.880e-01 	
        12.927	  3.880e-01 	
        12.991	  3.880e-01 	
        13.087	  3.880e-01 	
        13.152	  3.880e-01 	
        13.216	  3.880e-01 	
        13.279	  3.880e-01 	
        13.343	  3.880e-01 	
        13.408	  3.880e-01 	
        13.472	  3.880e-01 	
        13.536	  3.880e-01 	
        13.600	  3.880e-01 	
        13.664	  3.880e-01 	
        13.728	  3.880e-01 	
        13.792	  3.880e-01 	
        13.888	  3.880e-01 	
        13.951	  3.880e-01 	
        14.016	  3.880e-01 	
        14.080	  3.880e-01 	
        14.143	  3.880e-01 	
        14.208	  3.880e-01 	
        14.272	  3.880e-01 	
        14.336	  3.880e-01 	
        14.400	  3.880e-01 	
        14.464	  3.880e-01 	
        14.528	  3.880e-01 	
        14.591	  3.880e-01 	
        14.689	  3.880e-01 	
        14.751	  3.880e-01 	
        14.816	  3.880e-01 	
        14.880	  3.880e-01 	
        14.943	  3.880e-01 	
        15.008	  3.880e-01 	
        15.071	  3.880e-01 	
        15.135	  3.880e-01 	
        15.200	  3.880e-01 	
        15.263	  3.880e-01 	
        15.327	  3.880e-01 	
        15.392	  3.880e-01 	
        15.487	  3.880e-01 	
        15.552	  3.880e-01 	
        15.615	  3.880e-01 	
        15.680	  3.880e-01 	
        15.744	  3.880e-01 	
        15.809	  3.880e-01 	
        15.872	  3.880e-01 	
        15.936	  3.880e-01 	
        16.000	  3.880e-01 	
        16.064	  3.880e-01 	
        16.127	  3.880e-01 	
        16.192	  3.880e-01 	
        16.289	  3.880e-01 	
        16.352	  3.890e-01 	
        16.416	  3.890e-01 	
        16.480	  3.890e-01 	
        16.544	  3.890e-01 	
        16.608	  3.890e-01 	
        16.672	  3.890e-01 	
        16.736	  3.890e-01 	
        16.800	  3.890e-01 	
        16.864	  3.890e-01 	
        16.927	  3.890e-01 	
        16.992	  3.890e-01 	
        17.088	  3.890e-01 	
        17.152	  3.890e-01 	
        17.215	  3.890e-01 	
        17.280	  3.890e-01 	
        17.343	  3.890e-01 	
        17.408	  3.890e-01 	
        17.471	  3.890e-01 	
        17.537	  3.890e-01 	
        17.599	  3.890e-01 	
        17.663	  3.890e-01 	
        17.727	  3.890e-01 	
        17.791	  3.890e-01 	
        17.888	  3.890e-01 	
        17.951	  3.890e-01 	
        18.015	  3.880e-01 	
        18.080	  3.890e-01 	
        18.143	  3.880e-01 	
        18.208	  3.880e-01 	
        18.272	  3.880e-01 	
        18.336	  3.880e-01 	
        18.400	  3.880e-01 	
        18.463	  3.880e-01 	
        18.528	  3.880e-01 	
        18.593	  3.880e-01 	
        18.687	  3.880e-01 	
        18.753	  3.880e-01 	
        18.817	  3.890e-01 	
        18.879	  3.890e-01 	
        18.943	  3.890e-01 	
        19.007	  3.890e-01 	
        19.072	  3.890e-01 	
        19.136	  3.890e-01 	
        19.200	  3.890e-01 	
        19.264	  3.890e-01 	
        19.328	  3.890e-01 	
        19.392	  3.890e-01 	
        19.488	  3.890e-01 	
        19.552	  3.890e-01 	
        19.617	  3.890e-01 	
        19.679	  3.890e-01 	
        19.743	  3.890e-01 	
        19.808	  3.890e-01 	
        19.872	  3.890e-01 	
        19.936	  3.890e-01 	
        20.000	  3.890e-01 	
        20.064	  3.890e-01 	
        20.128	  3.890e-01 	
        20.192	  3.890e-01 	
        20.288	  3.890e-01 	
        20.352	  3.890e-01 	
        20.416	  3.890e-01 	
        20.480	  3.890e-01 	
        20.543	  3.890e-01 	
        20.607	  3.890e-01 	
        20.672	  3.890e-01 	
        20.736	  3.890e-01 	
        20.799	  3.890e-01 	
        20.864	  3.890e-01 	
        20.927	  3.890e-01 	
        20.992	  3.890e-01 	
        21.088	  3.890e-01 	
        21.152	  3.890e-01 	
        21.215	  3.890e-01 	
        21.280	  3.890e-01 	
        21.344	  3.890e-01 	
        21.408	  3.890e-01 	
        21.472	  3.890e-01 	
        21.536	  3.890e-01 	
        21.600	  3.890e-01 	
        21.664	  3.890e-01 	
        21.727	  3.890e-01 	
        21.792	  3.890e-01 	
        21.888	  3.890e-01 	
        21.952	  3.890e-01 	
        22.017	  3.890e-01 	
        22.080	  3.890e-01 	
        22.144	  3.890e-01 	
        22.208	  3.890e-01 	
        22.272	  3.890e-01 	
        22.336	  3.890e-01 	
        22.400	  3.890e-01 	
        22.463	  3.890e-01 	
        22.527	  3.890e-01 	
        22.592	  3.890e-01 	
        22.656	  3.890e-01 	
        22.752	  3.890e-01 	
        22.816	  3.890e-01 	
        22.880	  3.890e-01 	
        22.943	  3.890e-01 	
        23.008	  3.890e-01 	
        23.072	  3.890e-01 	
        23.135	  3.890e-01 	
        23.200	  3.890e-01 	
        23.264	  3.890e-01 	
        23.328	  3.890e-01 	
        23.392	  3.890e-01 	
        23.456	  3.890e-01 	
        23.551	  3.890e-01 	
        23.616	  3.890e-01 	
        23.680	  3.890e-01 	
        23.743	  3.890e-01 	
        23.808	  3.890e-01 	
        23.872	  3.890e-01 	
        23.936	  3.890e-01 	
        23.999	  3.890e-01 	
        24.064	  3.890e-01 	
        24.128	  3.890e-01 	
        24.192	  3.890e-01 	
        24.256	  3.890e-01 	
        24.352	  3.890e-01 	
        24.415	  3.890e-01 	
        24.480	  3.890e-01 	
        24.543	  3.890e-01 	
        24.608	  3.890e-01 	
        24.672	  3.890e-01 	
        24.736	  3.900e-01 	
        24.801	  3.900e-01 	
        24.864	  3.900e-01 	
        24.927	  3.900e-01 	
        24.992	  3.900e-01 	
        25.056	  3.900e-01 	
        25.152	  3.900e-01 	
        25.216	  3.900e-01 	
        25.280	  3.900e-01 	
        25.344	  3.900e-01 	
        25.408	  3.900e-01 	
        25.472	  3.900e-01 	
        25.536	  3.900e-01 	
        25.600	  3.900e-01 	
        25.664	  3.900e-01 	
        25.727	  3.900e-01 	
        25.791	  3.900e-01 	
        25.856	  3.900e-01 	
        25.952	  3.900e-01 	
        26.016	  3.900e-01 	
        26.080	  3.900e-01 	
        26.143	  3.900e-01 	
        26.208	  3.900e-01 	
        26.272	  3.900e-01 	
        26.336	  3.900e-01 	
        26.400	  3.900e-01 	
        26.464	  3.900e-01 	
        26.528	  3.900e-01 	
        26.592	  3.900e-01 	
        26.656	  3.900e-01 	
        26.752	  3.900e-01 	
        26.816	  3.900e-01 	
        26.880	  3.900e-01 	
        26.943	  3.900e-01 	
        27.007	  3.900e-01 	
        27.071	  3.900e-01 	
        27.136	  3.900e-01 	
        27.199	  3.900e-01 	
        27.264	  3.900e-01 	
        27.327	  3.900e-01 	
        27.391	  3.900e-01 	
        27.456	  3.900e-01 	
        27.553	  3.900e-01 	
        27.615	  3.900e-01 	
        27.680	  3.900e-01 	
        27.744	  3.900e-01 	
        27.808	  3.900e-01 	
        27.873	  3.900e-01 	
        27.936	  3.900e-01 	
        28.000	  3.900e-01 	
        28.063	  3.900e-01 	
        28.128	  3.900e-01 	
        28.192	  3.900e-01 	
        28.256	  3.900e-01 	
        28.352	  3.900e-01 	
        28.416	  3.900e-01 	
        28.480	  3.900e-01 	
        28.544	  3.900e-01 	
        28.608	  3.900e-01 	
        28.672	  3.900e-01 	
        28.736	  3.900e-01 	
        28.801	  3.900e-01 	
        28.864	  3.900e-01 	
        28.928	  3.900e-01 	
        28.991	  3.900e-01 	
        29.056	  3.900e-01 	
        29.152	  3.900e-01 	
        29.216	  3.900e-01 	
        29.280	  3.900e-01 	
        29.343	  3.900e-01 	
        29.408	  3.900e-01 	
        29.471	  3.900e-01 	
        29.535	  3.900e-01 	
        29.601	  3.900e-01 	
        29.664	  3.900e-01 	
        29.728	  3.900e-01 	
        29.791	  3.900e-01 	
        29.856	  3.900e-01 	
        29.952	  3.870e-01 	
        30.016	  3.830e-01 	
        30.080	  3.780e-01 	
        30.144	  3.730e-01 	
        30.208	  3.680e-01 	
        30.273	  3.630e-01 	
        30.336	  3.590e-01 	
        30.400	  3.560e-01 	
        30.465	  3.540e-01 	
        30.528	  3.510e-01 	
        30.591	  3.480e-01 	
        30.656	  3.430e-01 	
        30.751	  3.360e-01 	
        30.816	  3.260e-01 	
        30.880	  3.140e-01 	
        30.944	  3.000e-01 	
        31.008	  2.830e-01 	
        31.072	  2.650e-01 	
        31.136	  2.460e-01 	
        31.200	  2.280e-01 	
        31.264	  2.090e-01 	
        31.327	  1.910e-01 	
        31.391	  1.730e-01 	
        31.456	  1.560e-01 	
        31.551	  1.400e-01 	
        31.616	  1.250e-01 	
        31.680	  1.100e-01 	
        31.743	  9.700e-02 	
        31.807	  8.500e-02 	
        31.872	  7.400e-02 	
        31.936	  6.400e-02 	
        32.001	  5.500e-02 	
        32.064	  4.800e-02 	
        32.128	  4.100e-02 	
        32.191	  3.500e-02 	
        32.256	  3.000e-02 	
        32.352	  2.500e-02 	
        32.416	  2.200e-02 	
        32.480	  1.800e-02 	
        32.544	  1.600e-02 	
        32.608	  1.400e-02 	
        32.672	  1.200e-02 	
        32.736	  1.100e-02 	
        32.799	  9.000e-03 	
        32.864	  9.000e-03 	
        32.928	  8.000e-03 	
        32.991	  7.000e-03 	
        33.408	 -7.400e-03 	
        33.471	 -6.100e-03 	
        33.535	 -5.500e-03 	
        33.600	 -5.100e-03 	
        33.663	 -4.700e-03 	
        33.728	 -4.300e-03 	
        33.791	 -3.800e-03 	
        33.855	 -3.300e-03 	
        33.952	 -2.600e-03 	
        34.015	 -1.900e-03 	
        34.080	 -1.100e-03 	
        34.144	 -3.000e-04 	
        34.207	  4.000e-04 	
        34.272	  1.100e-03 	
        34.336	  1.700e-03 	
        34.400	  2.300e-03 	
        34.464	  2.800e-03 	
        34.528	  3.200e-03 	
        34.591	  3.600e-03 	
        34.657	  4.000e-03 	
        34.753	  4.300e-03 	
        34.816	  4.500e-03 	
        34.880	  4.700e-03 	
        34.943	  4.900e-03 	
        35.007	  5.000e-03 	
        35.072	  5.100e-03 	
        35.137	  5.100e-03 	
        35.200	  5.200e-03 	
        35.264	  5.200e-03 	
        35.327	  5.200e-03 	
        35.391	  5.200e-03 	
        35.455	  5.200e-03 	
        35.552	  5.200e-03 	
        35.617	  5.100e-03 	
        35.680	  5.100e-03 	
        35.744	  5.000e-03 	
        35.807	  5.000e-03 	
        35.872	  5.000e-03 	
        35.936	  4.900e-03 	
        36.000	  4.900e-03 	
        36.064	  4.900e-03 	
        36.127	  4.900e-03 	
        36.191	  4.900e-03 	
        36.256	  4.900e-03 	
        36.319	  4.900e-03 	
        36.415	  4.900e-03 	
        36.480	  4.900e-03 	
        36.543	  4.900e-03 	
        36.607	  4.900e-03 	
        36.673	  4.900e-03 	
        36.736	  5.000e-03 	
        36.799	  5.000e-03 	
        36.863	  5.000e-03 	
        36.928	  5.000e-03 	
        36.991	  5.100e-03 	
        37.056	  5.200e-03 	
        37.120	  5.400e-03 	
        37.216	  5.600e-03 	
        37.280	  5.800e-03 	
        37.344	  6.100e-03 	
        37.791	  3.010e-03 	
        37.855	  3.080e-03 	
        37.921	  3.420e-03 	
        38.016	  3.930e-03 	
        38.080	  4.540e-03 	
        38.144	  5.190e-03 	
        38.207	  5.850e-03 	
        38.271	  6.480e-03 	
        38.336	  7.070e-03 	
        38.399	  7.610e-03 	
        38.464	  8.100e-03 	
        38.528	  8.560e-03 	
        38.591	  8.970e-03 	
        38.656	  9.360e-03 	
        38.720	  9.740e-03 	
        38.816	  1.010e-02 	
        38.879	  1.046e-02 	
        38.944	  1.084e-02 	
        39.007	  1.122e-02 	
        39.072	  1.160e-02 	
        39.136	  1.195e-02 	
        39.200	  1.226e-02 	
        39.264	  1.253e-02 	
        39.328	  1.276e-02 	
        39.391	  1.296e-02 	
        39.456	  1.313e-02 	
        39.520	  1.329e-02 	
        39.615	  1.342e-02 	
        39.680	  1.353e-02 	
        39.744	  1.361e-02 	
        39.808	  1.368e-02 	
        39.871	  1.373e-02 	
        39.936	  1.375e-02 	
        40.000	  1.375e-02 	
        40.064	  1.373e-02 	
        40.127	  1.370e-02 	
        40.191	  1.365e-02 	
        40.256	  1.361e-02 	
        40.320	  1.357e-02 	
        40.416	  1.353e-02 	
        40.480	  1.349e-02 	
        40.544	  1.347e-02 	
        40.607	  1.344e-02 	
        40.672	  1.342e-02 	
        40.735	  1.340e-02 	
        40.800	  1.336e-02 	
        40.863	  1.333e-02 	
        40.927	  1.331e-02 	
        40.992	  1.330e-02 	
        41.056	  1.327e-02 	
        41.120	  1.320e-02 	
        41.216	  1.313e-02 	
        41.280	  1.304e-02 	
        41.344	  1.289e-02 	
        41.408	  1.269e-02 	
        41.472	  1.242e-02 	
        41.536	  1.210e-02 	
        41.599	  1.175e-02 	
        41.663	  1.139e-02 	
        41.729	  1.103e-02 	
        41.791	  1.069e-02 	
        41.856	  1.039e-02 	
        41.920	  1.013e-02 	
        42.017	  9.920e-03 	
        42.080	  9.770e-03 	
        42.144	  9.670e-03 	
        42.207	  9.620e-03 	
        42.272	  9.610e-03 	
        42.336	  9.630e-03 	
        42.399	  9.680e-03 	
        42.463	  9.750e-03 	
        42.527	  9.830e-03 	
        42.591	  9.920e-03 	
        42.655	  1.000e-02 	
        42.720	  1.009e-02 	
        42.815	  1.016e-02 	
        42.880	  1.022e-02 	
        42.944	  1.027e-02 	
        43.007	  1.031e-02 	
        43.072	  1.034e-02 	
        43.135	  1.036e-02 	
        43.200	  1.037e-02 	
        43.264	  1.038e-02 	
        43.327	  1.039e-02 	
        43.392	  1.040e-02 	
        43.456	  1.042e-02 	
        43.519	  1.046e-02 	
        43.616	  1.052e-02 	
        43.680	  1.061e-02 	
        43.744	  1.072e-02 	
        43.808	  1.085e-02 	
        43.872	  1.100e-02 	
        43.935	  1.118e-02 	
        44.001	  1.138e-02 	
        44.063	  1.159e-02 	
        44.128	  1.182e-02 	
        44.192	  1.206e-02 	
        44.256	  1.231e-02 	
        44.320	  1.255e-02 	
        44.416	  1.279e-02 	
        44.479	  1.302e-02 	
        44.544	  1.323e-02 	
        44.607	  1.342e-02 	
        44.671	  1.359e-02 	
        44.736	  1.375e-02 	
        44.799	  1.387e-02 	
        44.865	  1.397e-02 	
        44.927	  1.402e-02 	
        44.991	  1.405e-02 	
        45.056	  1.406e-02 	
        45.121	  1.407e-02 	
        45.216	  1.407e-02 	
        45.280	  1.408e-02 	
        45.343	  1.411e-02 	
        45.407	  1.415e-02 	
        45.471	  1.421e-02 	
        45.536	  1.429e-02 	
        45.600	  1.438e-02 	
        45.664	  1.449e-02 	
        45.728	  1.462e-02 	
        45.791	  1.477e-02 	
        45.855	  1.494e-02 	
        45.921	  1.513e-02 	
        46.016	  1.534e-02 	
        46.080	  1.557e-02 	
        46.143	  1.580e-02 	
        46.208	  1.604e-02 	
        46.272	  1.627e-02 	
        46.336	  1.649e-02 	
        46.400	  1.672e-02 	
        46.463	  1.738e-02 	
        46.527	  1.869e-02 	
        46.591	  2.057e-02 	
        46.656	  2.281e-02 	
        46.719	  2.519e-02 	
        46.816	  2.753e-02 	
        46.880	  2.968e-02 	
        47.265	  3.680e-02 	
        47.327	  3.640e-02 	
        47.392	  3.570e-02 	
        47.456	  3.490e-02 	
        47.521	  3.380e-02 	
        47.616	  3.260e-02 	
        47.680	  3.130e-02 	
        47.744	  2.990e-02 	
        47.807	  2.850e-02 	
        47.872	  2.710e-02 	
        47.935	  2.570e-02 	
        48.000	  2.440e-02 	
        48.064	  2.320e-02 	
        48.128	  2.200e-02 	
        48.191	  2.100e-02 	
        48.255	  2.010e-02 	
        48.319	  1.930e-02 	
        48.416	  1.850e-02 	
        48.480	  1.790e-02 	
        48.543	  1.740e-02 	
        48.608	  1.700e-02 	
        48.671	  1.670e-02 	
        48.737	  1.640e-02 	
        48.800	  1.620e-02 	
        48.863	  1.610e-02 	
        48.928	  1.670e-02 	
        48.991	  1.850e-02 	
        49.055	  2.130e-02 	
        49.119	  2.490e-02 	
        49.184	  2.920e-02 	
        49.280	  3.390e-02 	
        49.343	  3.890e-02 	
        49.407	  4.390e-02 	
        49.472	  4.900e-02 	
        49.536	  5.390e-02 	
        49.601	  5.870e-02 	
        49.664	  6.330e-02 	
        49.728	  6.770e-02 	
        49.792	  7.180e-02 	
        49.855	  7.560e-02 	
        49.920	  7.920e-02 	
        49.984	  8.240e-02 	
        50.080	  8.550e-02 	
        50.144	  8.870e-02 	
        50.208	  9.170e-02 	
        50.272	  9.450e-02 	
        50.336	  9.660e-02 	
        50.401	  9.820e-02 	
        50.463	  9.900e-02 	
        50.528	  9.920e-02 	
        50.591	  9.880e-02 	
        50.655	  9.770e-02 	
        50.720	  9.630e-02 	
        50.783	  9.440e-02 	
        50.879	  9.210e-02 	
        50.944	  8.960e-02 	
        51.008	  8.690e-02 	
        51.071	  8.400e-02 	
        51.136	  8.110e-02 	
        51.199	  7.820e-02 	
        51.264	  7.540e-02 	
        51.327	  7.260e-02 	
        51.391	  6.980e-02 	
        51.455	  6.720e-02 	
        51.520	  6.460e-02 	
        51.584	  6.230e-02 	
        51.681	  6.000e-02 	
        51.744	  5.800e-02 	
        51.808	  5.610e-02 	
        51.872	  5.450e-02 	
        51.936	  5.300e-02 	
        51.999	  5.160e-02 	
        52.064	  5.050e-02 	
        52.128	  4.950e-02 	
        52.191	  4.870e-02 	
        52.255	  4.800e-02 	
        52.320	  4.750e-02 	
        52.384	  4.710e-02 	
        52.480	  4.670e-02 	
        52.543	  4.650e-02 	
        52.608	  4.640e-02 	
        52.672	  4.630e-02 	
        52.735	  4.630e-02 	
        52.800	  4.620e-02 	
        52.863	  4.620e-02 	
        52.928	  4.610e-02 	
        52.992	  4.610e-02 	
        53.055	  4.610e-02 	
        53.121	  4.600e-02 	
        53.184	  4.590e-02 	
        53.280	  4.580e-02 	
        53.343	  4.580e-02 	
        53.408	  4.570e-02 	
        53.472	  4.570e-02 	
        53.536	  4.580e-02 	
        53.600	  4.580e-02 	
        53.664	  4.590e-02 	
        53.727	  4.600e-02 	
        53.792	  4.610e-02 	
        53.855	  4.620e-02 	
        53.920	  4.630e-02 	
        53.983	  4.640e-02 	
        54.081	  4.650e-02 	
        54.144	  4.650e-02 	
        54.208	  4.650e-02 	
        54.271	  4.640e-02 	
        54.336	  4.640e-02 	
        54.400	  4.630e-02 	
        54.464	  4.620e-02 	
        54.528	  4.610e-02 	
        54.592	  4.600e-02 	
        54.655	  4.590e-02 	
        54.720	  4.580e-02 	
        54.784	  4.570e-02 	
        54.881	  4.560e-02 	
        54.944	  4.540e-02 	
        55.008	  4.530e-02 	
        55.072	  4.520e-02 	
        55.136	  4.510e-02 	
        55.200	  4.490e-02 	
        55.264	  4.480e-02 	
        55.328	  4.460e-02 	
        55.392	  4.440e-02 	
        55.456	  4.430e-02 	
        55.520	  4.420e-02 	
        55.584	  4.400e-02 	
        55.680	  4.390e-02 	
        55.743	  4.370e-02 	
        55.808	  4.360e-02 	
        55.871	  4.350e-02 	
        55.936	  4.340e-02 	
        55.999	  4.330e-02 	
        56.064	  4.320e-02 	
        56.128	  4.310e-02 	
        56.192	  4.300e-02 	
        56.256	  4.290e-02 	
        56.320	  4.280e-02 	
        56.384	  4.270e-02 	
        56.480	  4.260e-02 	
        56.543	  4.250e-02 	
        56.607	  4.240e-02 	
        56.671	  4.230e-02 	
        56.735	  4.220e-02 	
        56.799	  4.210e-02 	
        56.864	  4.200e-02 	
        56.928	  4.190e-02 	
        56.992	  4.180e-02 	
        57.056	  4.170e-02 	
        57.120	  4.160e-02 	
        57.184	  4.150e-02 	
        57.280	  4.160e-02 	
        57.344	  4.330e-02 	
        57.407	  4.650e-02 	
        57.471	  5.100e-02 	
        57.537	  5.660e-02 	
        57.599	  6.290e-02 	
        57.664	  6.960e-02 	
        57.728	  7.640e-02 	
        57.792	  8.320e-02 	
        57.855	  8.970e-02 	
        57.920	  9.580e-02 	
        57.984	  1.019e-01 	
        58.080	  1.080e-01 	
        58.144	  1.140e-01 	
        58.207	  1.195e-01 	
        58.272	  1.245e-01 	
        58.336	  1.288e-01 	
        58.400	  1.323e-01 	
        58.463	  1.350e-01 	
        58.528	  1.369e-01 	
        58.592	  1.381e-01 	
        58.656	  1.386e-01 	
        58.720	  1.386e-01 	
        58.784	  1.381e-01 	
        58.880	  1.372e-01 	
        58.944	  1.359e-01 	
        59.007	  1.343e-01 	
        59.072	  1.325e-01 	
        59.136	  1.306e-01 	
        59.200	  1.286e-01 	
        59.264	  1.265e-01 	
        59.328	  1.242e-01 	
        59.391	  1.220e-01 	
        59.455	  1.197e-01 	
        59.519	  1.175e-01 	
        59.584	  1.153e-01 	
        59.680	  1.132e-01 	
        59.743	  1.110e-01 	
        59.808	  1.089e-01 	
        59.871	  1.069e-01 	
        59.936	  1.049e-01 	
        60.000	  1.030e-01 	
        60.063	  1.012e-01 	
        60.127	  9.940e-02 	
        60.192	  9.760e-02 	
        60.255	  9.590e-02 	
        60.319	  9.420e-02 	
        60.384	  9.260e-02 	
        60.480	  9.100e-02 	
        60.543	  8.950e-02 	
        60.607	  8.800e-02 	
        60.671	  8.650e-02 	
        60.736	  8.510e-02 	
        60.799	  8.380e-02 	
        60.864	  8.250e-02 	
        60.928	  8.130e-02 	
        60.992	  8.010e-02 	
        61.055	  7.900e-02 	
        61.120	  7.790e-02 	
        61.184	  7.690e-02 	
        61.280	  7.590e-02 	
        61.344	  7.490e-02 	
        61.408	  7.400e-02 	
        61.471	  7.300e-02 	
        61.536	  7.220e-02 	
        61.600	  7.130e-02 	
        61.664	  7.050e-02 	
        61.728	  6.960e-02 	
        61.791	  6.880e-02 	
        61.855	  6.800e-02 	
        61.920	  6.720e-02 	
        61.984	  6.640e-02 	
        62.047	  6.560e-02 	
        62.144	  6.490e-02 	
        62.207	  6.430e-02 	
        62.272	  6.370e-02 	
        62.336	  6.310e-02 	
        62.399	  6.250e-02 	
        62.464	  6.200e-02 	
        62.528	  6.140e-02 	
        62.591	  6.080e-02 	
        62.655	  6.020e-02 	
        62.720	  5.970e-02 	
        62.783	  5.910e-02 	
        62.849	  5.850e-02 	
        62.944	  5.800e-02 	
        63.008	  5.750e-02 	
        63.071	  5.700e-02 	
        63.135	  5.640e-02 	
        63.200	  5.590e-02 	
        63.263	  5.540e-02 	
        63.327	  5.490e-02 	
        63.392	  5.440e-02 	
        63.456	  5.390e-02 	
        63.519	  5.350e-02 	
        63.584	  5.310e-02 	
        63.648	  5.270e-02 	
        63.744	  5.240e-02 	
        63.807	  5.210e-02 	
        63.871	  5.180e-02 	
        63.936	  5.150e-02 	
        64.000	  5.130e-02 	
        64.064	  5.100e-02 	
        64.127	  5.070e-02 	
        64.192	  5.050e-02 	
        64.256	  5.030e-02 	
        64.320	  5.000e-02 	
        64.385	  4.980e-02 	
        64.448	  4.960e-02 	
        64.544	  4.940e-02 	
        64.607	  4.920e-02 	
        64.671	  4.900e-02 	
        64.736	  4.880e-02 	
        64.800	  4.860e-02 	
        64.864	  4.830e-02 	
        64.928	  4.810e-02 	
        64.991	  4.790e-02 	
        65.056	  4.760e-02 	
        65.120	  4.740e-02 	
        65.184	  4.720e-02 	
        65.248	  4.690e-02 	
        65.344	  4.660e-02 	
        65.408	  4.630e-02 	
        65.472	  4.600e-02 	
        65.536	  4.580e-02 	
        65.600	  4.560e-02 	
        65.663	  4.540e-02 	
        65.728	  4.530e-02 	
        65.792	  4.510e-02 	
        65.856	  4.500e-02 	
        65.920	  4.490e-02 	
        65.983	  4.480e-02 	
        66.048	  4.470e-02 	
        66.144	  4.460e-02 	
        66.207	  4.450e-02 	
        66.272	  4.440e-02 	
        66.336	  4.420e-02 	
        66.400	  4.410e-02 	
        66.464	  4.390e-02 	
        66.528	  4.370e-02 	
        66.592	  4.340e-02 	
        66.655	  4.320e-02 	
        66.720	  4.300e-02 	
        66.783	  4.270e-02 	
        66.848	  4.250e-02 	
        66.944	  4.230e-02 	
        67.008	  4.210e-02 	
        67.072	  4.200e-02 	
        67.135	  4.180e-02 	
        67.200	  4.170e-02 	
        67.264	  4.150e-02 	
        67.328	  4.140e-02 	
        67.392	  4.130e-02 	
        67.456	  4.120e-02 	
        67.520	  4.110e-02 	
        67.584	  4.110e-02 	
        67.647	  4.110e-02 	
        67.743	  4.110e-02 	
        67.808	  4.100e-02 	
        67.872	  4.100e-02 	
        67.936	  4.090e-02 	
        68.000	  4.080e-02 	
        68.064	  4.080e-02 	
        68.128	  4.070e-02 	
        68.191	  4.060e-02 	
        68.256	  4.050e-02 	
        68.319	  4.040e-02 	
        68.383	  4.040e-02 	
        68.448	  4.030e-02 	
        68.544	  4.030e-02 	
        68.608	  4.050e-02 	
        68.672	  4.230e-02 	
        68.735	  4.560e-02 	
        68.800	  5.020e-02 	
        68.865	  5.580e-02 	
        68.928	  6.230e-02 	
        68.992	  6.910e-02 	
        69.055	  7.620e-02 	
        69.119	  8.320e-02 	
        69.184	  9.000e-02 	
        69.248	  9.680e-02 	
        69.344	  1.037e-01 	
        69.407	  1.103e-01 	
        69.472	  1.164e-01 	
        69.536	  1.219e-01 	
        69.600	  1.264e-01 	
        69.664	  1.302e-01 	
        69.727	  1.330e-01 	
        69.792	  1.351e-01 	
        69.856	  1.364e-01 	
        69.919	  1.371e-01 	
        69.984	  1.371e-01 	
        70.047	  1.367e-01 	
        70.144	  1.358e-01 	
        70.208	  1.345e-01 	
        70.271	  1.330e-01 	
        70.336	  1.313e-01 	
        70.400	  1.295e-01 	
        70.464	  1.275e-01 	
        70.528	  1.255e-01 	
        70.592	  1.234e-01 	
        70.656	  1.214e-01 	
        70.719	  1.193e-01 	
        70.783	  1.173e-01 	
        70.848	  1.153e-01 	
        70.945	  1.133e-01 	
        71.008	  1.114e-01 	
        71.072	  1.095e-01 	
        71.135	  1.077e-01 	
        71.200	  1.059e-01 	
        71.264	  1.042e-01 	
        71.328	  1.026e-01 	
        71.392	  1.010e-01 	
        71.456	  9.940e-02 	
        71.520	  9.800e-02 	
        71.584	  9.660e-02 	
        71.648	  9.520e-02 	
        71.744	  9.380e-02 	
        71.808	  9.250e-02 	
        71.872	  9.130e-02 	
        71.935	  9.010e-02 	
        72.000	  8.910e-02 	
        72.063	  8.820e-02 	
        72.128	  8.760e-02 	
        72.192	  8.740e-02 	
        72.255	  8.740e-02 	
        72.319	  8.760e-02 	
        72.384	  8.810e-02 	
        72.448	  8.880e-02 	
        72.545	  8.970e-02 	
        72.607	  9.060e-02 	
        72.672	  9.180e-02 	
        72.735	  9.320e-02 	
        72.800	  9.480e-02 	
        72.863	  9.660e-02 	
        72.927	  9.860e-02 	
        72.991	  1.007e-01 	
        73.055	  1.029e-01 	
        73.119	  1.050e-01 	
        73.184	  1.072e-01 	
        73.248	  1.094e-01 	
        73.344	  1.116e-01 	
        73.408	  1.139e-01 	
        73.471	  1.164e-01 	
        73.536	  1.191e-01 	
        73.599	  1.218e-01 	
        73.664	  1.246e-01 	
        73.727	  1.273e-01 	
        73.792	  1.300e-01 	
        73.856	  1.325e-01 	
        73.919	  1.350e-01 	
        73.984	  1.375e-01 	
        74.048	  1.400e-01 	
        74.143	  1.426e-01 	
        74.208	  1.452e-01 	
        74.271	  1.477e-01 	
        74.335	  1.502e-01 	
        74.400	  1.525e-01 	
        74.464	  1.548e-01 	
        74.528	  1.569e-01 	
        74.591	  1.591e-01 	
        74.656	  1.614e-01 	
        74.719	  1.637e-01 	
        74.784	  1.661e-01 	
        74.848	  1.684e-01 	
        74.944	  1.708e-01 	
        75.007	  1.732e-01 	
        75.071	  1.754e-01 	
        75.136	  1.776e-01 	
        75.200	  1.797e-01 	
        75.264	  1.818e-01 	
        75.328	  1.839e-01 	
        75.392	  1.861e-01 	
        75.455	  1.883e-01 	
        75.519	  1.905e-01 	
        75.584	  1.926e-01 	
        75.648	  1.947e-01 	
        75.712	  1.966e-01 	
        75.808	  1.985e-01 	
        75.871	  2.004e-01 	
        75.935	  2.023e-01 	
        76.000	  2.042e-01 	
        76.064	  2.062e-01 	
        76.128	  2.082e-01 	
        76.192	  2.103e-01 	
        76.256	  2.122e-01 	
        76.319	  2.140e-01 	
        76.384	  2.157e-01 	
        76.447	  2.173e-01 	
        76.512	  2.189e-01 	
        76.608	  2.205e-01 	
        76.671	  2.222e-01 	
        76.735	  2.240e-01 	
        76.801	  2.258e-01 	
        76.864	  2.276e-01 	
        76.927	  2.293e-01 	
        76.992	  2.309e-01 	
        77.056	  2.324e-01 	
        77.119	  2.338e-01 	
        77.183	  2.353e-01 	
        77.248	  2.376e-01 	
        77.312	  2.412e-01 	
        77.408	  2.459e-01 	
        77.471	  2.514e-01 	
        77.535	  2.574e-01 	
        77.600	  2.638e-01 	
        77.665	  2.702e-01 	
        77.728	  2.767e-01 	
        77.791	  2.829e-01 	
        77.856	  2.888e-01 	
        77.919	  2.945e-01 	
        77.984	  2.997e-01 	
        78.400	  3.240e-01 	
        78.463	  3.290e-01 	
        78.529	  3.330e-01 	
        78.592	  3.360e-01 	
        78.655	  3.390e-01 	
        78.719	  3.410e-01 	
        78.783	  3.420e-01 	
        78.849	  3.430e-01 	
        78.912	  3.440e-01 	
        79.008	  3.440e-01 	
        79.071	  3.440e-01 	
        79.136	  3.440e-01 	
        79.200	  3.440e-01 	
        79.265	  3.440e-01 	
        79.327	  3.440e-01 	
        79.392	  3.430e-01 	
        79.456	  3.430e-01 	
        79.521	  3.430e-01 	
        79.583	  3.430e-01 	
        79.648	  3.430e-01 	
        79.712	  3.430e-01 	
        79.808	  3.430e-01 	
        79.871	  3.430e-01 	
        79.935	  3.430e-01 	
        80.000	  3.440e-01 	
        80.064	  3.440e-01 	
        80.128	  3.440e-01 	
        80.192	  3.440e-01 	
        80.256	  3.450e-01 	
        80.320	  3.450e-01 	
        80.384	  3.450e-01 	
        80.447	  3.460e-01 	
        80.512	  3.460e-01 	
        80.608	  3.460e-01 	
        80.672	  3.460e-01 	
        80.735	  3.470e-01 	
        80.800	  3.470e-01 	
        80.864	  3.470e-01 	
        80.927	  3.480e-01 	
        80.992	  3.480e-01 	
        81.056	  3.480e-01 	
        81.119	  3.480e-01 	
        81.184	  3.480e-01 	
        81.247	  3.490e-01 	
        81.312	  3.490e-01 	
        81.408	  3.490e-01 	
        81.472	  3.490e-01 	
        81.536	  3.500e-01 	
        81.599	  3.500e-01 	
        81.663	  3.500e-01 	
        81.727	  3.500e-01 	
        81.792	  3.510e-01 	
        81.856	  3.510e-01 	
        81.919	  3.510e-01 	
        81.983	  3.520e-01 	
        82.048	  3.520e-01 	
        82.112	  3.520e-01 	
        82.207	  3.530e-01 	
        82.272	  3.530e-01 	
        82.335	  3.540e-01 	
        82.400	  3.540e-01 	
        82.463	  3.540e-01 	
        82.528	  3.550e-01 	
        82.592	  3.550e-01 	
        82.656	  3.550e-01 	
        82.720	  3.560e-01 	
        82.783	  3.560e-01 	
        82.847	  3.560e-01 	
        82.912	  3.560e-01 	
        83.008	  3.570e-01 	
        83.072	  3.570e-01 	
        83.135	  3.570e-01 	
        83.200	  3.570e-01 	
        83.263	  3.580e-01 	
        83.328	  3.580e-01 	
        83.392	  3.580e-01 	
        83.456	  3.580e-01 	
        83.520	  3.590e-01 	
        83.583	  3.590e-01 	
        83.648	  3.590e-01 	
        83.712	  3.590e-01 	
        83.808	  3.590e-01 	
        83.871	  3.600e-01 	
        83.935	  3.600e-01 	
        83.999	  3.600e-01 	
        84.064	  3.600e-01 	
        84.128	  3.610e-01 	
        84.192	  3.610e-01 	
        84.256	  3.610e-01 	
        84.319	  3.610e-01 	
        84.384	  3.610e-01 	
        84.448	  3.610e-01 	
        84.511	  3.610e-01 	
        84.608	  3.620e-01 	
        84.672	  3.620e-01 	
        84.736	  3.620e-01 	
        84.800	  3.620e-01 	
        84.864	  3.620e-01 	
        84.929	  3.620e-01 	
        84.992	  3.630e-01 	
        85.056	  3.630e-01 	
        85.119	  3.630e-01 	
        85.183	  3.630e-01 	
        85.248	  3.630e-01 	
        85.312	  3.630e-01 	
        85.407	  3.630e-01 	
        85.472	  3.630e-01 	
        85.535	  3.630e-01 	
        85.600	  3.630e-01 	
        85.664	  3.630e-01 	
        85.729	  3.630e-01 	
        85.792	  3.630e-01 	
        85.855	  3.630e-01 	
        85.920	  3.630e-01 	
        85.984	  3.630e-01 	
        86.047	  3.630e-01 	
        86.112	  3.630e-01 	
        86.208	  3.630e-01 	
        86.272	  3.630e-01 	
        86.336	  3.630e-01 	
        86.400	  3.630e-01 	
        86.464	  3.630e-01 	
        86.528	  3.630e-01 	
        86.592	  3.630e-01 	
        86.655	  3.630e-01 	
        86.719	  3.630e-01 	
        86.783	  3.630e-01 	
        86.848	  3.630e-01 	
        86.912	  3.630e-01 	
        87.008	  3.630e-01 	
        87.072	  3.630e-01 	
        87.136	  3.630e-01 	
        87.200	  3.630e-01 	
        87.264	  3.630e-01 	
        87.328	  3.630e-01 	
        87.392	  3.630e-01 	
        87.456	  3.630e-01 	
        87.520	  3.630e-01 	
        87.584	  3.620e-01 	
        87.648	  3.620e-01 	
        87.712	  3.620e-01 	
        87.808	  3.620e-01 	
        87.871	  3.620e-01 	
        87.935	  3.620e-01 	
        87.999	  3.620e-01 	
        88.064	  3.620e-01 	
        88.128	  3.620e-01 	
        88.191	  3.620e-01 	
        88.256	  3.620e-01 	
        88.320	  3.620e-01 	
        88.383	  3.620e-01 	
        88.447	  3.620e-01 	
        88.512	  3.620e-01 	
        88.608	  3.620e-01 	
        88.672	  3.620e-01 	
        88.735	  3.620e-01 	
        88.800	  3.620e-01 	
        88.864	  3.620e-01 	
        88.927	  3.620e-01 	
        88.992	  3.620e-01 	
        89.055	  3.620e-01 	
        89.120	  3.620e-01 	
        89.183	  3.620e-01 	
        89.247	  3.620e-01 	
        89.311	  3.620e-01 	
        89.375	  3.620e-01 	
        89.471	  3.620e-01 	
        89.536	  3.620e-01 	
        89.599	  3.620e-01 	
        89.664	  3.620e-01 	
        89.728	  3.620e-01 	
        89.792	  3.620e-01 	
        89.856	  3.620e-01 	
        89.919	  3.620e-01 	
        89.984	  3.620e-01 	
        90.048	  3.620e-01 	
        90.112	  3.620e-01 	
        90.176	  3.620e-01 	
        90.272	  3.620e-01 	
        90.335	  3.620e-01 	
        90.399	  3.620e-01 	
        90.464	  3.620e-01 	
        90.527	  3.620e-01 	
        90.592	  3.620e-01 	
        90.656	  3.620e-01 	
        90.719	  3.620e-01 	
        90.783	  3.620e-01 	
        90.848	  3.620e-01 	
        90.912	  3.620e-01 	
        90.977	  3.620e-01 	
