;PC Software:StarLab Version 3.80 Build 2
! ******* Warning: Do not modify this file. Changes may prevent   ********
! ******* the StarLab Log reader from opening the file correctly. ********
;Logged:22/11/2022 at 17:59:47
;File Version:5
;Time Resolution:1 microseconds
;Log Settings:Stop after:period: 00:05:00
;Graph Mode:Merge
;Graph Type:Line
;Notes:                                                            

;Channel A:Vega Thermopile 3A (s/n:947746)  VG2.54 (s/n:858327)

;Channel A:Details
;Name:3A
;Graph Color:RGB(14,104,168)
;Units:W
;Settings:Measuring:Power
;Settings:Wavelength:532
;Settings:Range:AUTO

;Channel A:Statistics
;Min:6.240mW             
;Max:96.80mW             
;Average:72.47mW             
;Std.Dev.:25.18mW             
;Overrange:0                   
;--------------------


;First Pulse Arrived : 22/11/2022 at 17:59:48
  Timestamp   	  Channel A  	
         0.000	  9.270e-02 	
         0.064	  9.270e-02 	
         0.128	  9.260e-02 	
         0.191	  9.260e-02 	
         0.256	  9.260e-02 	
         0.320	  9.250e-02 	
         0.384	  9.250e-02 	
         0.448	  9.250e-02 	
         0.512	  9.240e-02 	
         0.577	  9.250e-02 	
         0.672	  9.250e-02 	
         0.737	  9.260e-02 	
         0.800	  9.260e-02 	
         0.865	  9.270e-02 	
         0.929	  9.280e-02 	
         0.993	  9.290e-02 	
         1.056	  9.300e-02 	
         1.121	  9.310e-02 	
         1.184	  9.310e-02 	
         1.248	  9.320e-02 	
         1.312	  9.320e-02 	
         1.377	  9.320e-02 	
         1.472	  9.320e-02 	
         1.537	  9.320e-02 	
         1.600	  9.310e-02 	
         1.665	  9.310e-02 	
         1.728	  9.310e-02 	
         1.793	  9.310e-02 	
         1.855	  9.300e-02 	
         1.920	  9.300e-02 	
         1.984	  9.300e-02 	
         2.049	  9.290e-02 	
         2.112	  9.290e-02 	
         2.177	  9.290e-02 	
         2.273	  9.290e-02 	
         2.336	  9.290e-02 	
         2.400	  9.290e-02 	
         2.464	  9.290e-02 	
         2.528	  9.290e-02 	
         2.593	  9.300e-02 	
         2.657	  9.300e-02 	
         2.721	  9.300e-02 	
         2.784	  9.310e-02 	
         2.848	  9.310e-02 	
         2.911	  9.310e-02 	
         2.976	  9.310e-02 	
         3.072	  9.310e-02 	
         3.137	  9.310e-02 	
         3.200	  9.310e-02 	
         3.265	  9.320e-02 	
         3.327	  9.310e-02 	
         3.393	  9.310e-02 	
         3.456	  9.310e-02 	
         3.521	  9.310e-02 	
         3.585	  9.310e-02 	
         3.649	  9.300e-02 	
         3.712	  9.300e-02 	
         3.777	  9.300e-02 	
         3.873	  9.300e-02 	
         3.936	  9.290e-02 	
         4.000	  9.290e-02 	
         4.065	  9.290e-02 	
         4.128	  9.280e-02 	
         4.193	  9.280e-02 	
         4.256	  9.270e-02 	
         4.320	  9.260e-02 	
         4.384	  9.260e-02 	
         4.448	  9.250e-02 	
         4.512	  9.250e-02 	
         4.577	  9.240e-02 	
         4.673	  9.240e-02 	
         4.737	  9.230e-02 	
         4.800	  9.230e-02 	
         4.864	  9.230e-02 	
         4.928	  9.220e-02 	
         4.993	  9.220e-02 	
         5.055	  9.220e-02 	
         5.120	  9.220e-02 	
         5.185	  9.210e-02 	
         5.248	  9.210e-02 	
         5.312	  9.200e-02 	
         5.375	  9.200e-02 	
         5.472	  9.200e-02 	
         5.537	  9.200e-02 	
         5.601	  9.190e-02 	
         5.664	  9.190e-02 	
         5.728	  9.190e-02 	
         5.792	  9.180e-02 	
         5.857	  9.180e-02 	
         5.921	  9.170e-02 	
         5.985	  9.170e-02 	
         6.049	  9.170e-02 	
         6.112	  9.170e-02 	
         6.177	  9.170e-02 	
         6.272	  9.160e-02 	
         6.336	  9.160e-02 	
         6.400	  9.160e-02 	
         6.464	  9.160e-02 	
         6.527	  9.150e-02 	
         6.592	  9.150e-02 	
         6.656	  9.150e-02 	
         6.721	  9.150e-02 	
         6.784	  9.140e-02 	
         6.848	  9.140e-02 	
         6.912	  9.140e-02 	
         6.977	  9.140e-02 	
         7.072	  9.140e-02 	
         7.136	  9.140e-02 	
         7.200	  9.140e-02 	
         7.265	  9.140e-02 	
         7.328	  9.140e-02 	
         7.393	  9.130e-02 	
         7.457	  9.130e-02 	
         7.521	  9.130e-02 	
         7.585	  9.120e-02 	
         7.648	  9.120e-02 	
         7.712	  9.110e-02 	
         7.776	  9.110e-02 	
         7.872	  9.100e-02 	
         7.937	  9.100e-02 	
         8.001	  9.090e-02 	
         8.064	  9.090e-02 	
         8.128	  9.080e-02 	
         8.192	  9.070e-02 	
         8.257	  9.070e-02 	
         8.320	  9.060e-02 	
         8.385	  9.050e-02 	
         8.449	  9.050e-02 	
         8.512	  9.040e-02 	
         8.577	  9.040e-02 	
         8.672	  9.030e-02 	
         8.737	  9.030e-02 	
         8.800	  9.020e-02 	
         8.864	  9.020e-02 	
         8.928	  9.010e-02 	
         8.992	  9.010e-02 	
         9.057	  9.010e-02 	
         9.120	  9.000e-02 	
         9.185	  9.000e-02 	
         9.249	  8.990e-02 	
         9.312	  8.990e-02 	
         9.377	  8.980e-02 	
         9.473	  8.980e-02 	
         9.536	  8.990e-02 	
         9.600	  8.990e-02 	
         9.665	  8.990e-02 	
         9.728	  8.990e-02 	
         9.793	  8.990e-02 	
         9.857	  8.980e-02 	
         9.921	  8.980e-02 	
         9.984	  8.980e-02 	
        10.048	  8.970e-02 	
        10.112	  8.970e-02 	
        10.177	  8.970e-02 	
        10.241	  8.970e-02 	
        10.337	  8.970e-02 	
        10.400	  8.970e-02 	
        10.465	  8.970e-02 	
        10.528	  8.970e-02 	
        10.593	  8.960e-02 	
        10.657	  8.960e-02 	
        10.721	  8.950e-02 	
        10.785	  8.940e-02 	
        10.848	  8.930e-02 	
        10.912	  8.920e-02 	
        10.976	  8.920e-02 	
        11.072	  8.910e-02 	
        11.136	  8.900e-02 	
        11.200	  8.890e-02 	
        11.265	  8.890e-02 	
        11.328	  8.880e-02 	
        11.393	  8.870e-02 	
        11.457	  8.860e-02 	
        11.520	  8.850e-02 	
        11.585	  8.840e-02 	
        11.649	  8.830e-02 	
        11.711	  8.830e-02 	
        11.777	  8.820e-02 	
        11.841	  8.820e-02 	
        11.936	  8.820e-02 	
        12.001	  8.810e-02 	
        12.064	  8.810e-02 	
        12.128	  8.810e-02 	
        12.192	  8.800e-02 	
        12.257	  8.800e-02 	
        12.321	  8.800e-02 	
        12.384	  8.800e-02 	
        12.448	  8.800e-02 	
        12.512	  8.800e-02 	
        12.577	  8.800e-02 	
        12.641	  8.790e-02 	
        12.736	  8.790e-02 	
        12.801	  8.790e-02 	
        12.865	  8.780e-02 	
        12.928	  8.780e-02 	
        12.993	  8.770e-02 	
        13.056	  8.770e-02 	
        13.121	  8.760e-02 	
        13.185	  8.750e-02 	
        13.248	  8.750e-02 	
        13.311	  8.740e-02 	
        13.376	  8.740e-02 	
        13.441	  8.740e-02 	
        13.537	  8.730e-02 	
        13.600	  8.730e-02 	
        13.665	  8.730e-02 	
        13.728	  8.720e-02 	
        13.793	  8.720e-02 	
        13.856	  8.710e-02 	
        13.921	  8.710e-02 	
        13.984	  8.710e-02 	
        14.048	  8.710e-02 	
        14.112	  8.700e-02 	
        14.176	  8.700e-02 	
        14.241	  8.700e-02 	
        14.337	  8.700e-02 	
        14.400	  8.700e-02 	
        14.465	  8.690e-02 	
        14.528	  8.690e-02 	
        14.593	  8.680e-02 	
        14.657	  8.670e-02 	
        14.721	  8.660e-02 	
        14.785	  8.650e-02 	
        14.848	  8.650e-02 	
        14.912	  8.640e-02 	
        14.976	  8.630e-02 	
        15.040	  8.630e-02 	
        15.136	  8.620e-02 	
        15.200	  8.620e-02 	
        15.264	  8.610e-02 	
        15.327	  8.610e-02 	
        15.393	  8.610e-02 	
        15.456	  8.610e-02 	
        15.521	  8.600e-02 	
        15.585	  8.600e-02 	
        15.648	  8.600e-02 	
        15.712	  8.600e-02 	
        15.776	  8.600e-02 	
        15.841	  8.600e-02 	
        15.937	  8.600e-02 	
        16.000	  8.600e-02 	
        16.065	  8.590e-02 	
        16.128	  8.590e-02 	
        16.192	  8.590e-02 	
        16.256	  8.590e-02 	
        16.320	  8.590e-02 	
        16.385	  8.580e-02 	
        16.447	  8.580e-02 	
        16.512	  8.580e-02 	
        16.576	  8.570e-02 	
        16.641	  8.570e-02 	
        16.737	  8.560e-02 	
        16.800	  8.560e-02 	
        16.864	  8.560e-02 	
        16.928	  8.560e-02 	
        16.992	  8.550e-02 	
        17.057	  8.550e-02 	
        17.120	  8.540e-02 	
        17.185	  8.540e-02 	
        17.248	  8.540e-02 	
        17.312	  8.540e-02 	
        17.376	  8.530e-02 	
        17.440	  8.530e-02 	
        17.536	  8.520e-02 	
        17.601	  8.510e-02 	
        17.665	  8.510e-02 	
        17.728	  8.500e-02 	
        17.793	  8.490e-02 	
        17.857	  8.480e-02 	
        17.921	  8.460e-02 	
        17.985	  8.450e-02 	
        18.048	  8.440e-02 	
        18.112	  8.420e-02 	
        18.176	  8.410e-02 	
        18.241	  8.400e-02 	
        18.337	  8.380e-02 	
        18.400	  8.370e-02 	
        18.465	  8.360e-02 	
        18.528	  8.350e-02 	
        18.593	  8.350e-02 	
        18.656	  8.340e-02 	
        18.721	  8.330e-02 	
        18.785	  8.330e-02 	
        18.848	  8.320e-02 	
        18.913	  8.320e-02 	
        18.976	  8.320e-02 	
        19.041	  8.310e-02 	
        19.137	  8.310e-02 	
        19.200	  8.310e-02 	
        19.264	  8.310e-02 	
        19.328	  8.300e-02 	
        19.392	  8.300e-02 	
        19.457	  8.300e-02 	
        19.520	  8.300e-02 	
        19.585	  8.300e-02 	
        19.649	  8.290e-02 	
        19.712	  8.290e-02 	
        19.776	  8.290e-02 	
        19.840	  8.280e-02 	
        19.936	  8.280e-02 	
        20.001	  8.270e-02 	
        20.064	  8.270e-02 	
        20.128	  8.270e-02 	
        20.193	  8.260e-02 	
        20.256	  8.260e-02 	
        20.321	  8.260e-02 	
        20.384	  8.250e-02 	
        20.447	  8.250e-02 	
        20.512	  8.240e-02 	
        20.576	  8.240e-02 	
        20.641	  8.230e-02 	
        20.737	  8.230e-02 	
        20.801	  8.220e-02 	
        20.864	  8.210e-02 	
        20.928	  8.200e-02 	
        20.992	  8.190e-02 	
        21.056	  8.170e-02 	
        21.120	  8.160e-02 	
        21.184	  8.150e-02 	
        21.248	  8.130e-02 	
        21.312	  8.120e-02 	
        21.376	  8.110e-02 	
        21.441	  8.100e-02 	
        21.536	  8.090e-02 	
        21.601	  8.080e-02 	
        21.664	  8.070e-02 	
        21.728	  8.060e-02 	
        21.792	  8.050e-02 	
        21.856	  8.040e-02 	
        21.921	  8.030e-02 	
        21.985	  8.020e-02 	
        22.049	  8.010e-02 	
        22.113	  8.010e-02 	
        22.176	  8.010e-02 	
        22.241	  8.000e-02 	
        22.336	  8.000e-02 	
        22.400	  8.000e-02 	
        22.465	  7.990e-02 	
        22.528	  7.990e-02 	
        22.592	  7.990e-02 	
        22.657	  7.990e-02 	
        22.720	  7.990e-02 	
        22.785	  7.980e-02 	
        22.849	  7.970e-02 	
        22.912	  7.960e-02 	
        22.975	  7.950e-02 	
        23.041	  7.940e-02 	
        23.136	  7.930e-02 	
        23.200	  7.920e-02 	
        23.264	  7.910e-02 	
        23.328	  7.890e-02 	
        23.391	  7.880e-02 	
        23.457	  7.870e-02 	
        23.521	  7.860e-02 	
        23.585	  7.840e-02 	
        23.648	  7.830e-02 	
        23.712	  7.820e-02 	
        23.776	  7.800e-02 	
        23.841	  7.790e-02 	
        23.904	  7.780e-02 	
        24.001	  7.760e-02 	
        24.064	  7.750e-02 	
        24.128	  7.730e-02 	
        24.192	  7.720e-02 	
        24.257	  7.710e-02 	
        24.321	  7.690e-02 	
        24.384	  7.680e-02 	
        24.449	  7.670e-02 	
        24.512	  7.650e-02 	
        24.576	  7.640e-02 	
        24.641	  7.630e-02 	
        24.705	  7.620e-02 	
        24.801	  7.610e-02 	
        24.865	  7.600e-02 	
        24.928	  7.590e-02 	
        24.992	  7.590e-02 	
        25.056	  7.580e-02 	
        25.121	  7.580e-02 	
        25.185	  7.580e-02 	
        25.248	  7.570e-02 	
        25.313	  7.570e-02 	
        25.376	  7.570e-02 	
        25.441	  7.560e-02 	
        25.505	  7.560e-02 	
        25.600	  7.560e-02 	
        25.665	  7.550e-02 	
        25.728	  7.550e-02 	
        25.792	  7.550e-02 	
        25.857	  7.550e-02 	
        25.920	  7.540e-02 	
        25.984	  7.540e-02 	
        26.047	  7.540e-02 	
        26.112	  7.540e-02 	
        26.176	  7.530e-02 	
        26.241	  7.530e-02 	
        26.305	  7.520e-02 	
        26.400	  7.510e-02 	
        26.464	  7.490e-02 	
        26.528	  7.480e-02 	
        26.592	  7.470e-02 	
        26.657	  7.460e-02 	
        26.720	  7.440e-02 	
        26.784	  7.430e-02 	
        26.848	  7.420e-02 	
        26.911	  7.410e-02 	
        26.976	  7.400e-02 	
        27.040	  7.390e-02 	
        27.105	  7.370e-02 	
        27.201	  7.360e-02 	
        27.265	  7.340e-02 	
        27.328	  7.320e-02 	
        27.391	  7.310e-02 	
        27.456	  7.290e-02 	
        27.521	  7.270e-02 	
        27.584	  7.260e-02 	
        27.648	  7.240e-02 	
        27.712	  7.220e-02 	
        27.776	  7.210e-02 	
        27.840	  7.190e-02 	
        27.904	  7.180e-02 	
        28.000	  7.170e-02 	
        28.065	  7.160e-02 	
        28.128	  7.160e-02 	
        28.192	  7.150e-02 	
        28.256	  7.150e-02 	
        28.321	  7.150e-02 	
        28.385	  7.140e-02 	
        28.447	  7.140e-02 	
        28.511	  7.150e-02 	
        28.576	  7.150e-02 	
        28.640	  7.150e-02 	
        28.705	  7.150e-02 	
        28.800	  7.150e-02 	
        28.864	  7.150e-02 	
        28.928	  7.150e-02 	
        28.992	  7.150e-02 	
        29.057	  7.140e-02 	
        29.119	  7.140e-02 	
        29.185	  7.140e-02 	
        29.249	  7.130e-02 	
        29.312	  7.120e-02 	
        29.376	  7.100e-02 	
        29.440	  7.090e-02 	
        29.504	  7.080e-02 	
        29.601	  7.060e-02 	
        29.664	  7.040e-02 	
        29.728	  7.020e-02 	
        29.791	  7.000e-02 	
        29.857	  6.980e-02 	
        29.921	  6.960e-02 	
        29.984	  6.940e-02 	
        30.048	  6.920e-02 	
        30.112	  6.890e-02 	
        30.176	  6.870e-02 	
        30.240	  6.850e-02 	
        30.304	  6.830e-02 	
        30.400	  6.810e-02 	
        30.465	  6.790e-02 	
        30.528	  6.760e-02 	
        30.591	  6.740e-02 	
        30.657	  6.730e-02 	
        30.721	  6.710e-02 	
        30.784	  6.690e-02 	
        30.848	  6.680e-02 	
        30.912	  6.670e-02 	
        30.976	  6.660e-02 	
        31.041	  6.650e-02 	
        31.105	  6.650e-02 	
        31.200	  6.650e-02 	
        31.265	  6.650e-02 	
        31.329	  6.660e-02 	
        31.392	  6.670e-02 	
        31.457	  6.680e-02 	
        31.521	  6.690e-02 	
        31.585	  6.710e-02 	
        31.648	  6.720e-02 	
        31.712	  6.740e-02 	
        31.776	  6.750e-02 	
        31.840	  6.770e-02 	
        31.905	  6.780e-02 	
        32.001	  6.790e-02 	
        32.064	  6.800e-02 	
        32.128	  6.810e-02 	
        32.192	  6.810e-02 	
        32.257	  6.820e-02 	
        32.320	  6.820e-02 	
        32.384	  6.820e-02 	
        32.449	  6.820e-02 	
        32.512	  6.810e-02 	
        32.575	  6.810e-02 	
        32.641	  6.800e-02 	
        32.704	  6.800e-02 	
        32.801	  6.790e-02 	
        32.865	  6.770e-02 	
        32.928	  6.760e-02 	
        32.992	  6.740e-02 	
        33.057	  6.730e-02 	
        33.121	  6.710e-02 	
        33.185	  6.690e-02 	
        33.248	  6.660e-02 	
        33.313	  6.640e-02 	
        33.376	  6.620e-02 	
        33.441	  6.590e-02 	
        33.505	  6.570e-02 	
        33.600	  6.550e-02 	
        33.665	  6.520e-02 	
        33.728	  6.500e-02 	
        33.792	  6.480e-02 	
        33.855	  6.460e-02 	
        33.920	  6.450e-02 	
        33.985	  6.430e-02 	
        34.048	  6.420e-02 	
        34.113	  6.420e-02 	
        34.175	  6.420e-02 	
        34.241	  6.420e-02 	
        34.304	  6.420e-02 	
        34.401	  6.420e-02 	
        34.464	  6.430e-02 	
        34.529	  6.440e-02 	
        34.592	  6.450e-02 	
        34.657	  6.460e-02 	
        34.721	  6.480e-02 	
        34.785	  6.490e-02 	
        34.848	  6.500e-02 	
        34.912	  6.510e-02 	
        34.976	  6.530e-02 	
        35.040	  6.540e-02 	
        35.105	  6.560e-02 	
        35.201	  6.570e-02 	
        35.264	  6.580e-02 	
        35.328	  6.590e-02 	
        35.392	  6.600e-02 	
        35.456	  6.600e-02 	
        35.521	  6.610e-02 	
        35.585	  6.610e-02 	
        35.649	  6.600e-02 	
        35.713	  6.600e-02 	
        35.776	  6.590e-02 	
        35.840	  6.580e-02 	
        35.904	  6.560e-02 	
        35.999	  6.540e-02 	
        36.065	  6.510e-02 	
        36.128	  6.480e-02 	
        36.192	  6.450e-02 	
        36.256	  6.410e-02 	
        36.321	  6.370e-02 	
        36.384	  6.330e-02 	
        36.448	  6.290e-02 	
        36.513	  6.250e-02 	
        36.576	  6.210e-02 	
        36.640	  6.180e-02 	
        36.705	  6.150e-02 	
        36.800	  6.120e-02 	
        36.865	  6.090e-02 	
        36.928	  6.070e-02 	
        36.992	  6.050e-02 	
        37.057	  6.030e-02 	
        37.120	  6.010e-02 	
        37.185	  5.990e-02 	
        37.249	  5.980e-02 	
        37.312	  5.970e-02 	
        37.377	  5.960e-02 	
        37.440	  5.960e-02 	
        37.504	  5.960e-02 	
        37.569	  5.970e-02 	
        37.664	  5.980e-02 	
        37.729	  5.990e-02 	
        37.792	  6.010e-02 	
        37.856	  6.020e-02 	
        37.921	  6.050e-02 	
        37.983	  6.070e-02 	
        38.049	  6.100e-02 	
        38.113	  6.120e-02 	
        38.176	  6.150e-02 	
        38.240	  6.170e-02 	
        38.305	  6.190e-02 	
        38.369	  6.200e-02 	
        38.464	  6.210e-02 	
        38.527	  6.220e-02 	
        38.592	  6.230e-02 	
        38.656	  6.230e-02 	
        38.721	  6.230e-02 	
        38.785	  6.220e-02 	
        38.849	  6.210e-02 	
        38.913	  6.200e-02 	
        38.976	  6.180e-02 	
        39.040	  6.160e-02 	
        39.104	  6.140e-02 	
        39.169	  6.110e-02 	
        39.265	  6.080e-02 	
        39.328	  6.040e-02 	
        39.392	  6.000e-02 	
        39.457	  5.960e-02 	
        39.520	  5.910e-02 	
        39.583	  5.860e-02 	
        39.648	  5.820e-02 	
        39.712	  5.770e-02 	
        39.776	  5.720e-02 	
        39.840	  5.680e-02 	
        39.905	  5.640e-02 	
        39.968	  5.600e-02 	
        40.064	  5.560e-02 	
        40.129	  5.530e-02 	
        40.192	  5.500e-02 	
        40.256	  5.480e-02 	
        40.321	  5.460e-02 	
        40.385	  5.450e-02 	
        40.449	  5.440e-02 	
        40.512	  5.440e-02 	
        40.576	  5.430e-02 	
        40.640	  5.440e-02 	
        40.705	  5.440e-02 	
        40.769	  5.450e-02 	
        40.865	  5.460e-02 	
        40.929	  5.480e-02 	
        40.992	  5.490e-02 	
        41.056	  5.510e-02 	
        41.120	  5.530e-02 	
        41.184	  5.550e-02 	
        41.249	  5.560e-02 	
        41.313	  5.580e-02 	
        41.376	  5.600e-02 	
        41.440	  5.610e-02 	
        41.504	  5.620e-02 	
        41.569	  5.640e-02 	
        41.664	  5.640e-02 	
        41.727	  5.650e-02 	
        41.792	  5.650e-02 	
        41.856	  5.640e-02 	
        41.921	  5.640e-02 	
        41.984	  5.620e-02 	
        42.048	  5.600e-02 	
        42.112	  5.570e-02 	
        42.176	  5.530e-02 	
        42.240	  5.490e-02 	
        42.305	  5.440e-02 	
        42.369	  5.380e-02 	
        42.465	  5.320e-02 	
        42.528	  5.250e-02 	
        42.592	  5.180e-02 	
        42.656	  5.110e-02 	
        42.721	  5.040e-02 	
        42.785	  4.970e-02 	
        42.848	  4.910e-02 	
        42.912	  4.840e-02 	
        42.977	  4.780e-02 	
        43.039	  4.720e-02 	
        43.105	  4.670e-02 	
        43.168	  4.620e-02 	
        43.265	  4.570e-02 	
        43.329	  4.530e-02 	
        43.392	  4.500e-02 	
        43.456	  4.470e-02 	
        43.521	  4.450e-02 	
        43.585	  4.440e-02 	
        43.649	  4.430e-02 	
        43.712	  4.430e-02 	
        43.776	  4.440e-02 	
        43.839	  4.460e-02 	
        43.905	  4.480e-02 	
        43.969	  4.510e-02 	
        44.065	  4.550e-02 	
        44.129	  4.580e-02 	
        44.193	  4.620e-02 	
        44.255	  4.660e-02 	
        44.321	  4.690e-02 	
        44.384	  4.720e-02 	
        44.449	  4.760e-02 	
        44.513	  4.780e-02 	
        44.575	  4.810e-02 	
        44.639	  4.830e-02 	
        44.705	  4.840e-02 	
        44.769	  4.850e-02 	
        44.865	  4.850e-02 	
        44.928	  4.850e-02 	
        44.992	  4.840e-02 	
        45.056	  4.830e-02 	
        45.120	  4.810e-02 	
        45.185	  4.790e-02 	
        45.248	  4.760e-02 	
        45.312	  4.730e-02 	
        45.377	  4.690e-02 	
        45.440	  4.650e-02 	
        45.505	  4.600e-02 	
        45.568	  4.540e-02 	
        45.665	  4.480e-02 	
        45.728	  4.420e-02 	
        45.791	  4.350e-02 	
        45.856	  4.280e-02 	
        45.921	  4.200e-02 	
        45.985	  4.130e-02 	
        46.049	  4.070e-02 	
        46.112	  4.000e-02 	
        46.176	  3.940e-02 	
        46.240	  3.880e-02 	
        46.305	  3.830e-02 	
        46.369	  3.780e-02 	
        46.463	  3.740e-02 	
        46.529	  3.690e-02 	
        46.593	  3.650e-02 	
        46.656	  3.610e-02 	
        46.721	  3.580e-02 	
        46.784	  3.550e-02 	
        46.849	  3.520e-02 	
        46.912	  3.500e-02 	
        46.976	  3.460e-02 	
        47.040	  3.410e-02 	
        47.105	  3.370e-02 	
        47.168	  3.320e-02 	
        47.265	  3.260e-02 	
        47.328	  3.210e-02 	
        47.393	  3.170e-02 	
        47.456	  3.130e-02 	
        47.520	  3.100e-02 	
        47.585	  3.070e-02 	
        47.649	  3.050e-02 	
        47.713	  3.040e-02 	
        47.776	  3.030e-02 	
        47.840	  3.020e-02 	
        47.905	  3.020e-02 	
        47.969	  3.020e-02 	
        48.065	  3.020e-02 	
        48.129	  3.010e-02 	
        48.192	  3.010e-02 	
        48.256	  2.990e-02 	
        48.320	  2.980e-02 	
        48.385	  2.950e-02 	
        48.449	  2.930e-02 	
        48.512	  2.890e-02 	
        48.577	  2.850e-02 	
        48.640	  2.810e-02 	
        48.705	  2.760e-02 	
        48.769	  2.710e-02 	
        48.864	  2.640e-02 	
        48.928	  2.570e-02 	
        48.992	  2.480e-02 	
        49.056	  2.380e-02 	
        49.120	  2.290e-02 	
        49.184	  2.200e-02 	
        49.248	  2.110e-02 	
        49.313	  2.030e-02 	
        49.376	  1.960e-02 	
        49.440	  1.890e-02 	
        49.505	  1.840e-02 	
        49.568	  1.790e-02 	
        49.665	  1.750e-02 	
        49.728	  1.710e-02 	
        49.792	  1.680e-02 	
        49.855	  1.660e-02 	
        49.920	  1.640e-02 	
        49.985	  1.610e-02 	
        50.049	  1.600e-02 	
        50.112	  1.590e-02 	
        50.177	  1.580e-02 	
        50.240	  1.590e-02 	
        50.305	  1.600e-02 	
        50.367	  1.610e-02 	
        50.465	  1.620e-02 	
        50.528	  1.620e-02 	
        50.593	  1.630e-02 	
        50.656	  1.640e-02 	
        50.721	  1.630e-02 	
        50.784	  1.620e-02 	
        51.263	  1.099e-02 	
        51.328	  1.048e-02 	
        51.392	  1.009e-02 	
        51.455	  9.790e-03 	
        51.520	  9.530e-03 	
        51.585	  9.290e-03 	
        51.649	  9.060e-03 	
        51.713	  8.830e-03 	
        51.776	  8.600e-03 	
        51.840	  8.370e-03 	
        51.904	  8.140e-03 	
        51.969	  7.910e-03 	
        52.033	  7.700e-03 	
        52.129	  7.490e-03 	
        52.191	  7.300e-03 	
        52.256	  7.110e-03 	
        52.320	  6.950e-03 	
        52.385	  6.800e-03 	
        52.447	  6.660e-03 	
        52.513	  6.550e-03 	
        52.576	  6.450e-03 	
        52.639	  6.370e-03 	
        52.705	  6.310e-03 	
        52.768	  6.270e-03 	
        52.833	  6.250e-03 	
        52.928	  6.240e-03 	
        52.991	  6.250e-03 	
        53.056	  6.270e-03 	
        53.120	  6.320e-03 	
        53.185	  6.380e-03 	
        53.249	  6.460e-03 	
        53.312	  6.560e-03 	
        53.376	  6.680e-03 	
        53.439	  6.790e-03 	
        53.505	  6.920e-03 	
        53.569	  7.040e-03 	
        53.633	  7.180e-03 	
        53.729	  7.310e-03 	
        53.792	  7.450e-03 	
        53.856	  7.600e-03 	
        53.921	  7.750e-03 	
        53.985	  7.920e-03 	
        54.049	  8.080e-03 	
        54.112	  8.240e-03 	
        54.176	  8.410e-03 	
        54.239	  8.580e-03 	
        54.304	  8.760e-03 	
        54.369	  8.950e-03 	
        54.432	  9.140e-03 	
        54.528	  9.320e-03 	
        54.592	  9.500e-03 	
        54.655	  9.660e-03 	
        54.720	  9.820e-03 	
        54.785	  9.980e-03 	
        54.848	  1.013e-02 	
        54.913	  1.029e-02 	
        54.977	  1.045e-02 	
        55.040	  1.061e-02 	
        55.105	  1.078e-02 	
        55.169	  1.096e-02 	
        55.233	  1.116e-02 	
        55.329	  1.138e-02 	
        55.393	  1.162e-02 	
        55.456	  1.190e-02 	
        55.521	  1.221e-02 	
        55.585	  1.257e-02 	
        55.648	  1.297e-02 	
        55.713	  1.343e-02 	
        55.775	  1.395e-02 	
        55.840	  1.455e-02 	
        55.904	  1.524e-02 	
        55.969	  1.600e-02 	
        56.033	  1.682e-02 	
        56.130	  1.770e-02 	
        56.192	  1.862e-02 	
        56.256	  1.961e-02 	
        56.320	  2.066e-02 	
        56.385	  2.175e-02 	
        56.448	  2.288e-02 	
        56.513	  2.405e-02 	
        56.576	  2.527e-02 	
        56.640	  2.654e-02 	
        56.704	  2.785e-02 	
        56.768	  2.922e-02 	
        57.185	  3.830e-02 	
        57.249	  4.050e-02 	
        57.312	  4.240e-02 	
        57.376	  4.400e-02 	
        57.440	  4.540e-02 	
        57.504	  4.640e-02 	
        57.569	  4.710e-02 	
        57.632	  4.770e-02 	
        57.728	  4.800e-02 	
        57.792	  4.820e-02 	
        57.856	  4.820e-02 	
        57.921	  4.810e-02 	
        57.984	  4.780e-02 	
        58.049	  4.750e-02 	
        58.113	  4.710e-02 	
        58.175	  4.660e-02 	
        58.240	  4.600e-02 	
        58.304	  4.530e-02 	
        58.369	  4.450e-02 	
        58.432	  4.360e-02 	
        58.528	  4.270e-02 	
        58.591	  4.170e-02 	
        58.656	  4.070e-02 	
        58.720	  3.980e-02 	
        58.784	  3.900e-02 	
        58.848	  3.810e-02 	
        58.912	  3.740e-02 	
        58.976	  3.670e-02 	
        59.040	  3.610e-02 	
        59.104	  3.560e-02 	
        59.168	  3.510e-02 	
        59.233	  3.480e-02 	
        59.329	  3.450e-02 	
        59.391	  3.430e-02 	
        59.456	  3.420e-02 	
        59.521	  3.420e-02 	
        59.584	  3.440e-02 	
        59.648	  3.470e-02 	
        59.712	  3.500e-02 	
        59.776	  3.550e-02 	
        59.840	  3.610e-02 	
        59.904	  3.670e-02 	
        59.969	  3.740e-02 	
        60.033	  3.810e-02 	
        60.129	  3.880e-02 	
        60.192	  3.960e-02 	
        60.256	  4.040e-02 	
        60.321	  4.110e-02 	
        60.384	  4.190e-02 	
        60.449	  4.260e-02 	
        60.513	  4.330e-02 	
        60.575	  4.400e-02 	
        60.641	  4.460e-02 	
        60.704	  4.510e-02 	
        60.769	  4.550e-02 	
        60.833	  4.590e-02 	
        60.928	  4.610e-02 	
        60.993	  4.630e-02 	
        61.056	  4.640e-02 	
        61.120	  4.640e-02 	
        61.184	  4.620e-02 	
        61.248	  4.600e-02 	
        61.313	  4.560e-02 	
        61.377	  4.520e-02 	
        61.440	  4.460e-02 	
        61.504	  4.400e-02 	
        61.569	  4.330e-02 	
        61.633	  4.250e-02 	
        61.729	  4.180e-02 	
        61.792	  4.100e-02 	
        61.856	  4.020e-02 	
        61.919	  3.950e-02 	
        61.984	  3.880e-02 	
        62.049	  3.820e-02 	
        62.113	  3.760e-02 	
        62.177	  3.710e-02 	
        62.240	  3.670e-02 	
        62.304	  3.640e-02 	
        62.368	  3.610e-02 	
        62.433	  3.590e-02 	
        62.529	  3.580e-02 	
        62.593	  3.580e-02 	
        62.656	  3.580e-02 	
        62.720	  3.590e-02 	
        62.784	  3.610e-02 	
        62.849	  3.630e-02 	
        62.912	  3.660e-02 	
        62.977	  3.700e-02 	
        63.041	  3.740e-02 	
        63.103	  3.780e-02 	
        63.169	  3.830e-02 	
        63.232	  3.890e-02 	
        63.328	  3.940e-02 	
        63.392	  3.990e-02 	
        63.456	  4.040e-02 	
        63.520	  4.090e-02 	
        63.585	  4.140e-02 	
        63.649	  4.190e-02 	
        63.712	  4.230e-02 	
        63.776	  4.270e-02 	
        63.841	  4.300e-02 	
        63.904	  4.330e-02 	
        63.969	  4.360e-02 	
        64.033	  4.380e-02 	
        64.129	  4.400e-02 	
        64.193	  4.410e-02 	
        64.256	  4.410e-02 	
        64.320	  4.420e-02 	
        64.384	  4.410e-02 	
        64.449	  4.410e-02 	
        64.513	  4.400e-02 	
        64.576	  4.380e-02 	
        64.640	  4.370e-02 	
        64.703	  4.350e-02 	
        64.769	  4.330e-02 	
        64.832	  4.310e-02 	
        64.897	  4.280e-02 	
        64.993	  4.260e-02 	
        65.056	  4.250e-02 	
        65.120	  4.230e-02 	
        65.185	  4.220e-02 	
        65.249	  4.210e-02 	
        65.312	  4.200e-02 	
        65.377	  4.200e-02 	
        65.440	  4.200e-02 	
        65.504	  4.210e-02 	
        65.569	  4.220e-02 	
        65.633	  4.240e-02 	
        65.697	  4.260e-02 	
        65.793	  4.290e-02 	
        65.856	  4.320e-02 	
        65.920	  4.350e-02 	
        65.984	  4.390e-02 	
        66.049	  4.420e-02 	
        66.112	  4.470e-02 	
        66.176	  4.510e-02 	
        66.240	  4.550e-02 	
        66.304	  4.600e-02 	
        66.368	  4.650e-02 	
        66.432	  4.700e-02 	
        66.497	  4.750e-02 	
        66.593	  4.800e-02 	
        66.656	  4.850e-02 	
        66.720	  4.900e-02 	
        66.785	  4.950e-02 	
        66.849	  5.000e-02 	
        66.913	  5.040e-02 	
        66.976	  5.080e-02 	
        67.041	  5.120e-02 	
        67.103	  5.160e-02 	
        67.168	  5.190e-02 	
        67.233	  5.210e-02 	
        67.296	  5.230e-02 	
        67.392	  5.250e-02 	
        67.457	  5.260e-02 	
        67.520	  5.270e-02 	
        67.585	  5.270e-02 	
        67.649	  5.270e-02 	
        67.713	  5.260e-02 	
        67.777	  5.250e-02 	
        67.840	  5.230e-02 	
        67.904	  5.210e-02 	
        67.969	  5.190e-02 	
        68.033	  5.170e-02 	
        68.096	  5.150e-02 	
        68.192	  5.120e-02 	
        68.256	  5.100e-02 	
        68.320	  5.090e-02 	
        68.385	  5.080e-02 	
        68.448	  5.070e-02 	
        68.512	  5.060e-02 	
        68.577	  5.060e-02 	
        68.640	  5.060e-02 	
        68.704	  5.070e-02 	
        68.769	  5.080e-02 	
        68.833	  5.090e-02 	
        68.896	  5.110e-02 	
        68.993	  5.130e-02 	
        69.056	  5.160e-02 	
        69.119	  5.180e-02 	
        69.185	  5.220e-02 	
        69.249	  5.250e-02 	
        69.312	  5.290e-02 	
        69.377	  5.330e-02 	
        69.441	  5.370e-02 	
        69.504	  5.420e-02 	
        69.567	  5.460e-02 	
        69.632	  5.500e-02 	
        69.697	  5.540e-02 	
        69.793	  5.580e-02 	
        69.855	  5.620e-02 	
        69.920	  5.660e-02 	
        69.985	  5.700e-02 	
        70.049	  5.730e-02 	
        70.113	  5.760e-02 	
        70.176	  5.780e-02 	
        70.240	  5.810e-02 	
        70.303	  5.840e-02 	
        70.369	  5.860e-02 	
        70.433	  5.880e-02 	
        70.496	  5.900e-02 	
        70.591	  5.910e-02 	
        70.656	  5.930e-02 	
        70.720	  5.940e-02 	
        70.784	  5.940e-02 	
        70.848	  5.950e-02 	
        70.913	  5.950e-02 	
        70.976	  5.960e-02 	
        71.040	  5.960e-02 	
        71.104	  5.960e-02 	
        71.168	  5.960e-02 	
        71.233	  5.960e-02 	
        71.296	  5.960e-02 	
        71.393	  5.960e-02 	
        71.457	  5.960e-02 	
        71.519	  5.960e-02 	
        71.584	  5.970e-02 	
        71.647	  5.970e-02 	
        71.713	  5.990e-02 	
        71.776	  6.000e-02 	
        71.840	  6.020e-02 	
        71.904	  6.040e-02 	
        71.968	  6.060e-02 	
        72.033	  6.090e-02 	
        72.097	  6.120e-02 	
        72.192	  6.150e-02 	
        72.257	  6.190e-02 	
        72.320	  6.230e-02 	
        72.385	  6.270e-02 	
        72.449	  6.310e-02 	
        72.513	  6.350e-02 	
        72.577	  6.390e-02 	
        72.640	  6.430e-02 	
        72.704	  6.480e-02 	
        72.769	  6.520e-02 	
        72.832	  6.560e-02 	
        72.897	  6.600e-02 	
        72.992	  6.630e-02 	
        73.056	  6.670e-02 	
        73.119	  6.700e-02 	
        73.185	  6.740e-02 	
        73.249	  6.770e-02 	
        73.313	  6.790e-02 	
        73.376	  6.820e-02 	
        73.441	  6.850e-02 	
        73.504	  6.870e-02 	
        73.569	  6.890e-02 	
        73.632	  6.910e-02 	
        73.697	  6.920e-02 	
        73.793	  6.940e-02 	
        73.856	  6.950e-02 	
        73.920	  6.950e-02 	
        73.985	  6.960e-02 	
        74.049	  6.960e-02 	
        74.113	  6.970e-02 	
        74.177	  6.970e-02 	
        74.241	  6.980e-02 	
        74.304	  6.990e-02 	
        74.369	  7.000e-02 	
        74.432	  7.010e-02 	
        74.497	  7.020e-02 	
        74.593	  7.030e-02 	
        74.657	  7.040e-02 	
        74.720	  7.060e-02 	
        74.785	  7.080e-02 	
        74.848	  7.100e-02 	
        74.913	  7.120e-02 	
        74.976	  7.150e-02 	
        75.041	  7.180e-02 	
        75.104	  7.210e-02 	
        75.168	  7.250e-02 	
        75.233	  7.290e-02 	
        75.295	  7.340e-02 	
        75.392	  7.390e-02 	
        75.456	  7.440e-02 	
        75.520	  7.490e-02 	
        75.585	  7.540e-02 	
        75.649	  7.600e-02 	
        75.713	  7.660e-02 	
        75.776	  7.710e-02 	
        75.841	  7.770e-02 	
        75.904	  7.820e-02 	
        75.969	  7.870e-02 	
        76.033	  7.920e-02 	
        76.096	  7.960e-02 	
        76.192	  8.000e-02 	
        76.256	  8.040e-02 	
        76.320	  8.080e-02 	
        76.384	  8.110e-02 	
        76.449	  8.140e-02 	
        76.513	  8.170e-02 	
        76.577	  8.190e-02 	
        76.640	  8.210e-02 	
        76.704	  8.230e-02 	
        76.768	  8.240e-02 	
        76.833	  8.250e-02 	
        76.897	  8.260e-02 	
        76.992	  8.270e-02 	
        77.056	  8.280e-02 	
        77.120	  8.280e-02 	
        77.185	  8.290e-02 	
        77.249	  8.290e-02 	
        77.313	  8.300e-02 	
        77.377	  8.300e-02 	
        77.440	  8.310e-02 	
        77.504	  8.310e-02 	
        77.568	  8.320e-02 	
        77.633	  8.330e-02 	
        77.696	  8.340e-02 	
        77.761	  8.360e-02 	
        77.856	  8.380e-02 	
        77.920	  8.390e-02 	
        77.984	  8.420e-02 	
        78.049	  8.440e-02 	
        78.113	  8.470e-02 	
        78.176	  8.500e-02 	
        78.240	  8.530e-02 	
        78.304	  8.570e-02 	
        78.368	  8.610e-02 	
        78.432	  8.650e-02 	
        78.497	  8.690e-02 	
        78.593	  8.730e-02 	
        78.655	  8.780e-02 	
        78.719	  8.820e-02 	
        78.784	  8.870e-02 	
        78.849	  8.910e-02 	
        78.912	  8.960e-02 	
        78.975	  9.000e-02 	
        79.040	  9.050e-02 	
        79.104	  9.090e-02 	
        79.168	  9.130e-02 	
        79.233	  9.170e-02 	
        79.296	  9.200e-02 	
        79.361	  9.230e-02 	
        79.456	  9.260e-02 	
        79.520	  9.290e-02 	
        79.585	  9.310e-02 	
        79.649	  9.330e-02 	
        79.711	  9.340e-02 	
        79.777	  9.360e-02 	
        79.841	  9.360e-02 	
        79.904	  9.370e-02 	
        79.968	  9.370e-02 	
        80.033	  9.370e-02 	
        80.096	  9.370e-02 	
        80.161	  9.360e-02 	
        80.255	  9.350e-02 	
        80.320	  9.340e-02 	
        80.385	  9.330e-02 	
        80.449	  9.310e-02 	
        80.513	  9.300e-02 	
        80.577	  9.290e-02 	
        80.641	  9.270e-02 	
        80.705	  9.260e-02 	
        80.767	  9.240e-02 	
        80.833	  9.230e-02 	
        80.895	  9.210e-02 	
        80.961	  9.200e-02 	
        81.057	  9.190e-02 	
        81.120	  9.180e-02 	
        81.184	  9.180e-02 	
        81.248	  9.170e-02 	
        81.313	  9.170e-02 	
        81.377	  9.170e-02 	
        81.439	  9.170e-02 	
        81.505	  9.180e-02 	
        81.568	  9.190e-02 	
        81.631	  9.200e-02 	
        81.697	  9.210e-02 	
        81.761	  9.230e-02 	
        81.857	  9.240e-02 	
        81.920	  9.260e-02 	
        81.984	  9.270e-02 	
        82.049	  9.280e-02 	
        82.112	  9.300e-02 	
        82.176	  9.310e-02 	
        82.241	  9.330e-02 	
        82.304	  9.340e-02 	
        82.368	  9.350e-02 	
        82.432	  9.360e-02 	
        82.497	  9.380e-02 	
        82.560	  9.390e-02 	
        82.656	  9.390e-02 	
        82.720	  9.400e-02 	
        82.785	  9.410e-02 	
        82.849	  9.410e-02 	
        82.913	  9.410e-02 	
        82.975	  9.420e-02 	
        83.041	  9.420e-02 	
        83.105	  9.410e-02 	
        83.168	  9.410e-02 	
        83.232	  9.410e-02 	
        83.296	  9.400e-02 	
        83.360	  9.400e-02 	
        83.456	  9.400e-02 	
        83.519	  9.390e-02 	
        83.584	  9.380e-02 	
        83.649	  9.380e-02 	
        83.712	  9.370e-02 	
        83.777	  9.360e-02 	
        83.840	  9.350e-02 	
        83.905	  9.350e-02 	
        83.967	  9.340e-02 	
        84.033	  9.330e-02 	
        84.097	  9.330e-02 	
        84.161	  9.320e-02 	
        84.256	  9.320e-02 	
        84.320	  9.320e-02 	
        84.384	  9.320e-02 	
        84.449	  9.320e-02 	
        84.512	  9.320e-02 	
        84.577	  9.320e-02 	
        84.640	  9.320e-02 	
        84.705	  9.320e-02 	
        84.768	  9.320e-02 	
        84.833	  9.330e-02 	
        84.897	  9.330e-02 	
        84.961	  9.340e-02 	
        85.057	  9.350e-02 	
        85.120	  9.360e-02 	
        85.184	  9.360e-02 	
        85.249	  9.370e-02 	
        85.312	  9.380e-02 	
        85.377	  9.390e-02 	
        85.440	  9.400e-02 	
        85.504	  9.410e-02 	
        85.567	  9.420e-02 	
        85.632	  9.430e-02 	
        85.697	  9.440e-02 	
        85.761	  9.450e-02 	
        85.856	  9.450e-02 	
        85.921	  9.460e-02 	
        85.984	  9.470e-02 	
        86.049	  9.470e-02 	
        86.113	  9.470e-02 	
        86.176	  9.480e-02 	
        86.240	  9.480e-02 	
        86.305	  9.480e-02 	
        86.368	  9.480e-02 	
        86.433	  9.480e-02 	
        86.497	  9.480e-02 	
        86.561	  9.480e-02 	
        86.656	  9.480e-02 	
        86.720	  9.470e-02 	
        86.784	  9.470e-02 	
        86.848	  9.470e-02 	
        86.912	  9.460e-02 	
        86.976	  9.460e-02 	
        87.040	  9.450e-02 	
        87.104	  9.450e-02 	
        87.167	  9.440e-02 	
        87.233	  9.440e-02 	
        87.297	  9.430e-02 	
        87.360	  9.420e-02 	
        87.457	  9.420e-02 	
        87.520	  9.410e-02 	
        87.584	  9.410e-02 	
        87.649	  9.400e-02 	
        87.713	  9.400e-02 	
        87.777	  9.400e-02 	
        87.840	  9.400e-02 	
        87.904	  9.400e-02 	
        87.968	  9.400e-02 	
        88.031	  9.410e-02 	
        88.097	  9.420e-02 	
        88.160	  9.430e-02 	
        88.257	  9.440e-02 	
        88.320	  9.440e-02 	
        88.384	  9.450e-02 	
        88.449	  9.460e-02 	
        88.513	  9.470e-02 	
        88.576	  9.480e-02 	
        88.641	  9.490e-02 	
        88.704	  9.500e-02 	
        88.768	  9.510e-02 	
        88.833	  9.520e-02 	
        88.897	  9.530e-02 	
        88.960	  9.540e-02 	
        89.055	  9.540e-02 	
        89.120	  9.550e-02 	
        89.183	  9.560e-02 	
        89.249	  9.560e-02 	
        89.313	  9.570e-02 	
        89.376	  9.570e-02 	
        89.440	  9.580e-02 	
        89.504	  9.580e-02 	
        89.568	  9.580e-02 	
        89.633	  9.580e-02 	
        89.696	  9.580e-02 	
        89.761	  9.580e-02 	
        89.857	  9.580e-02 	
        89.919	  9.580e-02 	
        89.983	  9.580e-02 	
        90.049	  9.580e-02 	
        90.113	  9.580e-02 	
        90.176	  9.570e-02 	
        90.240	  9.570e-02 	
        90.304	  9.570e-02 	
        90.368	  9.560e-02 	
        90.433	  9.560e-02 	
        90.496	  9.560e-02 	
        90.561	  9.550e-02 	
        90.657	  9.550e-02 	
        90.719	  9.550e-02 	
        90.784	  9.540e-02 	
        90.848	  9.540e-02 	
        90.913	  9.540e-02 	
        90.976	  9.530e-02 	
        91.041	  9.530e-02 	
        91.104	  9.530e-02 	
        91.170	  9.530e-02 	
        91.232	  9.530e-02 	
        91.296	  9.530e-02 	
        91.361	  9.530e-02 	
        91.424	  9.530e-02 	
        91.520	  9.540e-02 	
        91.584	  9.540e-02 	
        91.648	  9.550e-02 	
        91.713	  9.550e-02 	
        91.777	  9.560e-02 	
        91.841	  9.560e-02 	
        91.905	  9.570e-02 	
        91.967	  9.580e-02 	
        92.033	  9.590e-02 	
        92.097	  9.600e-02 	
        92.161	  9.610e-02 	
        92.224	  9.620e-02 	
        92.320	  9.630e-02 	
        92.384	  9.630e-02 	
        92.449	  9.640e-02 	
        92.512	  9.650e-02 	
        92.577	  9.650e-02 	
        92.640	  9.660e-02 	
        92.705	  9.660e-02 	
        92.768	  9.660e-02 	
        92.833	  9.670e-02 	
        92.897	  9.670e-02 	
        92.959	  9.670e-02 	
        93.025	  9.670e-02 	
        93.120	  9.670e-02 	
        93.184	  9.670e-02 	
        93.249	  9.660e-02 	
        93.313	  9.660e-02 	
        93.377	  9.660e-02 	
        93.441	  9.660e-02 	
        93.504	  9.650e-02 	
        93.568	  9.650e-02 	
        93.632	  9.650e-02 	
        93.697	  9.640e-02 	
        93.761	  9.640e-02 	
        93.824	  9.640e-02 	
        93.920	  9.630e-02 	
        93.984	  9.630e-02 	
        94.048	  9.620e-02 	
        94.113	  9.620e-02 	
        94.177	  9.610e-02 	
        94.240	  9.610e-02 	
        94.305	  9.610e-02 	
        94.368	  9.610e-02 	
        94.433	  9.610e-02 	
        94.497	  9.610e-02 	
        94.560	  9.620e-02 	
        94.624	  9.620e-02 	
        94.720	  9.620e-02 	
        94.784	  9.630e-02 	
        94.848	  9.630e-02 	
        94.913	  9.630e-02 	
        94.977	  9.630e-02 	
        95.041	  9.640e-02 	
        95.105	  9.640e-02 	
        95.168	  9.650e-02 	
        95.233	  9.650e-02 	
        95.296	  9.650e-02 	
        95.361	  9.660e-02 	
        95.424	  9.660e-02 	
        95.521	  9.660e-02 	
        95.583	  9.670e-02 	
        95.649	  9.670e-02 	
        95.713	  9.670e-02 	
        95.777	  9.680e-02 	
        95.841	  9.680e-02 	
        95.904	  9.680e-02 	
        95.968	  9.670e-02 	
        96.032	  9.670e-02 	
        96.097	  9.670e-02 	
        96.160	  9.670e-02 	
        96.224	  9.660e-02 	
        96.321	  9.660e-02 	
        96.384	  9.670e-02 	
        96.448	  9.670e-02 	
        96.513	  9.670e-02 	
        96.577	  9.670e-02 	
        96.641	  9.670e-02 	
        96.704	  9.670e-02 	
        96.768	  9.670e-02 	
        96.833	  9.670e-02 	
        96.897	  9.660e-02 	
        96.961	  9.650e-02 	
        97.024	  9.650e-02 	
        97.120	  9.640e-02 	
        97.184	  9.630e-02 	
        97.249	  9.630e-02 	
        97.313	  9.620e-02 	
        97.375	  9.610e-02 	
        97.441	  9.600e-02 	
        97.504	  9.600e-02 	
        97.568	  9.590e-02 	
        97.633	  9.590e-02 	
        97.697	  9.590e-02 	
        97.760	  9.590e-02 	
        97.824	  9.590e-02 	
        97.919	  9.590e-02 	
        97.984	  9.600e-02 	
        98.048	  9.600e-02 	
        98.113	  9.610e-02 	
        98.176	  9.620e-02 	
        98.241	  9.620e-02 	
        98.305	  9.630e-02 	
        98.367	  9.640e-02 	
        98.432	  9.640e-02 	
        98.496	  9.650e-02 	
        98.560	  9.650e-02 	
        98.624	  9.650e-02 	
        98.720	  9.660e-02 	
        98.784	  9.660e-02 	
        98.849	  9.660e-02 	
        98.913	  9.660e-02 	
        98.977	  9.670e-02 	
        99.040	  9.670e-02 	
        99.105	  9.670e-02 	
        99.168	  9.670e-02 	
        99.232	  9.670e-02 	
        99.297	  9.670e-02 	
        99.360	  9.670e-02 	
        99.425	  9.670e-02 	
        99.520	  9.670e-02 	
        99.584	  9.670e-02 	
        99.649	  9.660e-02 	
        99.712	  9.660e-02 	
        99.777	  9.660e-02 	
        99.841	  9.650e-02 	
        99.904	  9.650e-02 	
        99.968	  9.650e-02 	
       100.032	  9.650e-02 	
       100.097	  9.650e-02 	
       100.160	  9.650e-02 	
       100.224	  9.650e-02 	
       100.321	  9.650e-02 	
       100.384	  9.650e-02 	
       100.449	  9.650e-02 	
       100.513	  9.660e-02 	
       100.576	  9.660e-02 	
       100.639	  9.660e-02 	
       100.704	  9.660e-02 	
       100.768	  9.660e-02 	
       100.831	  9.660e-02 	
       100.896	  9.660e-02 	
       100.960	  9.660e-02 	
       101.025	  9.660e-02 	
       101.120	  9.660e-02 	
       101.184	  9.660e-02 	
       101.248	  9.660e-02 	
       101.313	  9.660e-02 	
       101.376	  9.660e-02 	
       101.441	  9.660e-02 	
       101.504	  9.660e-02 	
       101.568	  9.650e-02 	
       101.632	  9.650e-02 	
       101.697	  9.650e-02 	
       101.761	  9.640e-02 	
       101.823	  9.640e-02 	
       101.919	  9.640e-02 	
       101.983	  9.640e-02 	
       102.048	  9.630e-02 	
       102.112	  9.630e-02 	
       102.177	  9.630e-02 	
       102.241	  9.630e-02 	
       102.305	  9.630e-02 	
       102.368	  9.630e-02 	
       102.431	  9.630e-02 	
       102.497	  9.630e-02 	
       102.561	  9.640e-02 	
       102.624	  9.640e-02 	
       102.720	  9.640e-02 	
       102.783	  9.640e-02 	
       102.848	  9.640e-02 	
       102.912	  9.630e-02 	
       102.977	  9.630e-02 	
       103.040	  9.630e-02 	
       103.105	  9.630e-02 	
       103.169	  9.630e-02 	
       103.231	  9.620e-02 	
       103.297	  9.620e-02 	
       103.360	  9.620e-02 	
       103.425	  9.620e-02 	
       103.520	  9.620e-02 	
       103.583	  9.610e-02 	
       103.648	  9.610e-02 	
       103.713	  9.610e-02 	
       103.776	  9.620e-02 	
       103.840	  9.620e-02 	
       103.905	  9.620e-02 	
       103.969	  9.620e-02 	
       104.031	  9.620e-02 	
       104.096	  9.620e-02 	
       104.161	  9.620e-02 	
       104.225	  9.620e-02 	
       104.321	  9.620e-02 	
       104.384	  9.620e-02 	
       104.448	  9.620e-02 	
       104.513	  9.630e-02 	
       104.577	  9.630e-02 	
       104.640	  9.630e-02 	
       104.704	  9.630e-02 	
       104.768	  9.640e-02 	
       104.831	  9.640e-02 	
       104.896	  9.640e-02 	
       104.961	  9.650e-02 	
       105.025	  9.650e-02 	
       105.120	  9.660e-02 	
       105.184	  9.660e-02 	
       105.248	  9.660e-02 	
       105.312	  9.660e-02 	
       105.377	  9.660e-02 	
       105.440	  9.660e-02 	
       105.505	  9.660e-02 	
       105.568	  9.660e-02 	
       105.632	  9.670e-02 	
       105.697	  9.670e-02 	
       105.760	  9.660e-02 	
       105.825	  9.660e-02 	
       105.889	  9.660e-02 	
       105.983	  9.660e-02 	
       106.048	  9.660e-02 	
       106.113	  9.660e-02 	
       106.176	  9.660e-02 	
       106.240	  9.660e-02 	
       106.304	  9.660e-02 	
       106.369	  9.670e-02 	
       106.432	  9.670e-02 	
       106.497	  9.670e-02 	
       106.560	  9.670e-02 	
       106.623	  9.670e-02 	
       106.689	  9.660e-02 	
       106.784	  9.660e-02 	
       106.848	  9.660e-02 	
       106.913	  9.660e-02 	
       106.976	  9.660e-02 	
       107.041	  9.660e-02 	
       107.105	  9.650e-02 	
       107.168	  9.650e-02 	
       107.232	  9.650e-02 	
       107.296	  9.650e-02 	
       107.361	  9.650e-02 	
       107.425	  9.650e-02 	
       107.488	  9.650e-02 	
       107.585	  9.640e-02 	
       107.648	  9.640e-02 	
       107.712	  9.640e-02 	
       107.775	  9.640e-02 	
       107.841	  9.640e-02 	
       107.905	  9.640e-02 	
       107.969	  9.630e-02 	
       108.032	  9.630e-02 	
       108.097	  9.630e-02 	
       108.159	  9.630e-02 	
       108.224	  9.620e-02 	
       108.289	  9.620e-02 	
       108.384	  9.620e-02 	
       108.448	  9.620e-02 	
       108.513	  9.620e-02 	
       108.577	  9.620e-02 	
       108.641	  9.620e-02 	
       108.703	  9.610e-02 	
       108.769	  9.610e-02 	
       108.832	  9.610e-02 	
       108.895	  9.610e-02 	
       108.961	  9.610e-02 	
       109.025	  9.610e-02 	
       109.088	  9.610e-02 	
       109.185	  9.610e-02 	
       109.248	  9.610e-02 	
       109.313	  9.610e-02 	
       109.376	  9.610e-02 	
       109.441	  9.610e-02 	
       109.504	  9.610e-02 	
       109.569	  9.610e-02 	
       109.632	  9.610e-02 	
       109.697	  9.610e-02 	
       109.761	  9.600e-02 	
       109.824	  9.600e-02 	
       109.889	  9.600e-02 	
       109.985	  9.600e-02 	
       110.048	  9.590e-02 	
       110.113	  9.590e-02 	
       110.176	  9.590e-02 	
       110.241	  9.590e-02 	
       110.304	  9.590e-02 	
       110.368	  9.600e-02 	
       110.432	  9.600e-02 	
       110.495	  9.600e-02 	
       110.560	  9.600e-02 	
       110.624	  9.600e-02 	
       110.687	  9.610e-02 	
       110.784	  9.610e-02 	
       110.847	  9.610e-02 	
       110.912	  9.610e-02 	
       110.976	  9.620e-02 	
       111.041	  9.620e-02 	
       111.105	  9.620e-02 	
       111.170	  9.620e-02 	
       111.231	  9.620e-02 	
       111.297	  9.620e-02 	
       111.361	  9.620e-02 	
       111.423	  9.620e-02 	
       111.488	  9.620e-02 	
       111.584	  9.610e-02 	
       111.648	  9.610e-02 	
       111.711	  9.610e-02 	
       111.777	  9.600e-02 	
       111.839	  9.590e-02 	
       111.904	  9.590e-02 	
       111.969	  9.590e-02 	
       112.032	  9.580e-02 	
       112.096	  9.580e-02 	
       112.161	  9.580e-02 	
       112.225	  9.580e-02 	
       112.289	  9.590e-02 	
       112.384	  9.590e-02 	
       112.448	  9.590e-02 	
       112.513	  9.590e-02 	
